%OpenBCI Raw EEG Data
%Number of channels = 8
%Sample Rate = 250.0 Hz
%First Column = SampleIndex
%Last Column = Timestamp 
%Other Columns = EEG data in microvolts followed by Accel Data (in G) interleaved with Aux Data
0, 0.00, 0.00, 0.00, 0.00, 0.00, 0.00, 0.00, 0.00, 0, 12:00:26.822, 1595692826822
1, 40292.82, 187500.00, 187500.00, 187500.00, 187500.00, 187500.00, 187500.00, 0.00, 0, 12:00:26.834, 1595692826834
2, 39374.50, 187500.00, 187500.00, 187500.00, 187500.00, 187500.00, 187500.00, 0.00, 0, 12:00:26.840, 1595692826840
3, 39836.60, 187500.00, 187500.00, 187500.00, 187500.00, 187500.00, 187500.00, 0.00, 0, 12:00:26.840, 1595692826840
4, 40433.59, 187500.00, 187500.00, 187500.00, 187500.00, 187500.00, 187500.00, 0.00, 0, 12:00:26.850, 1595692826850
5, 40796.20, 187500.00, 187500.00, 187500.00, 187500.00, 187500.00, 187500.00, 0.00, 0, 12:00:26.850, 1595692826850
6, 39138.33, 187500.00, 187500.00, 187500.00, 187500.00, 187500.00, 187500.00, 0.00, 0, 12:00:26.856, 1595692826856
7, 39188.62, 187500.00, 187500.00, 187500.00, 187500.00, 187500.00, 187500.00, 0.00, 0, 12:00:26.856, 1595692826856
8, 40198.80, 187500.00, 187500.00, 187500.00, 187500.00, 187500.00, 187500.00, 0.00, 0, 12:00:26.863, 1595692826863
9, 41259.78, 187500.00, 187500.00, 187500.00, 187500.00, 187500.00, 187500.00, 0.00, 0, 12:00:26.863, 1595692826863
10, 39556.82, 187500.00, 187500.00, 187500.00, 187500.00, 187500.00, 187500.00, 0.00, 0, 12:00:26.871, 1595692826871
11, 39032.47, 187500.00, 187500.00, 187500.00, 187500.00, 187500.00, 187500.00, 0.00, 0, 12:00:26.871, 1595692826871
12, 40023.19, 187500.00, 187500.00, 187500.00, 187500.00, 187500.00, 187500.00, 0.00, 0, 12:00:26.879, 1595692826879
13, 41245.63, 187500.00, 187500.00, 187500.00, 187500.00, 187500.00, 187500.00, 0.00, 0, 12:00:26.879, 1595692826879
14, 39952.51, 187500.00, 187500.00, 187500.00, 187500.00, 187500.00, 187500.00, 0.00, 0, 12:00:26.886, 1595692826886
15, 38888.93, 187500.00, 187500.00, 187500.00, 187500.00, 187500.00, 187500.00, 0.00, 0, 12:00:26.886, 1595692826886
16, 39838.81, 187500.00, 187500.00, 187500.00, 187500.00, 187500.00, 187500.00, 0.00, 0, 12:00:26.892, 1595692826892
17, 41109.13, 187500.00, 187500.00, 187500.00, 187500.00, 187500.00, 187500.00, 0.00, 0, 12:00:26.900, 1595692826900
18, 40372.79, 187500.00, 187500.00, 187500.00, 187500.00, 187500.00, 187500.00, 0.00, 0, 12:00:26.900, 1595692826900
19, 38816.91, 187500.00, 187500.00, 187500.00, 187500.00, 187500.00, 187500.00, 0.00, 0, 12:00:26.908, 1595692826908
20, 39670.75, 187500.00, 187500.00, 187500.00, 187500.00, 187500.00, 187500.00, 0.00, 0, 12:00:26.908, 1595692826908
21, 40890.77, 187500.00, 187500.00, 187500.00, 187500.00, 187500.00, 187500.00, 0.00, 0, 12:00:26.917, 1595692826917
22, 40765.31, 187500.00, 187500.00, 187500.00, 187500.00, 187500.00, 187500.00, 0.00, 0, 12:00:26.917, 1595692826917
23, 38845.95, 187500.00, 187500.00, 187500.00, 187500.00, 187500.00, 187500.00, 0.00, 0, 12:00:26.923, 1595692826923
24, 39497.07, 187500.00, 187500.00, 187500.00, 187500.00, 187500.00, 187500.00, 0.00, 0, 12:00:26.923, 1595692826923
25, 40578.38, 187500.00, 187500.00, 187500.00, 187500.00, 187500.00, 187500.00, 0.00, 0, 12:00:26.931, 1595692826931
26, 40979.75, 187500.00, 187500.00, 187500.00, 187500.00, 187500.00, 187500.00, 0.00, 0, 12:00:26.931, 1595692826931
27, 39083.34, 187500.00, 187500.00, 187500.00, 187500.00, 187500.00, 187500.00, 0.00, 0, 12:00:26.938, 1595692826938
28, 39371.90, 187500.00, 187500.00, 187500.00, 187500.00, 187500.00, 187500.00, 0.00, 0, 12:00:26.938, 1595692826938
29, 40386.34, 187500.00, 187500.00, 187500.00, 187500.00, 187500.00, 187500.00, 0.00, 0, 12:00:26.945, 1595692826945
30, 41213.89, 187500.00, 187500.00, 187500.00, 187500.00, 187500.00, 187500.00, 0.00, 0, 12:00:26.946, 1595692826946
31, 39299.55, 187500.00, 187500.00, 187500.00, 187500.00, 187500.00, 187500.00, 0.00, 0, 12:00:26.953, 1595692826953
32, 39169.40, 187500.00, 187500.00, 187500.00, 187500.00, 187500.00, 187500.00, 0.00, 0, 12:00:26.961, 1595692826961
33, 40171.70, 187500.00, 187500.00, 187500.00, 187500.00, 187500.00, 187500.00, 0.00, 0, 12:00:26.961, 1595692826961
34, 41274.98, 187500.00, 187500.00, 187500.00, 187500.00, 187500.00, 187500.00, 0.00, 0, 12:00:26.968, 1595692826968
35, 39640.23, 187500.00, 187500.00, 187500.00, 187500.00, 187500.00, 187500.00, 0.00, 0, 12:00:26.968, 1595692826968
36, 39000.93, 187500.00, 187500.00, 187500.00, 187500.00, 187500.00, 187500.00, 0.00, 0, 12:00:26.975, 1595692826975
37, 39979.76, 187500.00, 187500.00, 187500.00, 187500.00, 187500.00, 187500.00, 0.00, 0, 12:00:26.975, 1595692826975
38, 41234.59, 187500.00, 187500.00, 187500.00, 187500.00, 187500.00, 187500.00, 0.00, 0, 12:00:26.983, 1595692826983
39, 40058.62, 187500.00, 187500.00, 187500.00, 187500.00, 187500.00, 187500.00, 0.00, 0, 12:00:26.984, 1595692826984
40, 38883.23, 187500.00, 187500.00, 187500.00, 187500.00, 187500.00, 187500.00, 0.00, 0, 12:00:26.991, 1595692826991
41, 39807.29, 187500.00, 187500.00, 187500.00, 187500.00, 187500.00, 187500.00, 0.00, 0, 12:00:26.992, 1595692826992
42, 41050.68, 187500.00, 187500.00, 187500.00, 187500.00, 187500.00, 187500.00, 0.00, 0, 12:00:26.998, 1595692826998
43, 40467.12, 187500.00, 187500.00, 187500.00, 187500.00, 187500.00, 187500.00, 0.00, 0, 12:00:26.998, 1595692826998
44, 38822.16, 187500.00, 187500.00, 187500.00, 187500.00, 187500.00, 187500.00, 0.00, 0, 12:00:27.006, 1595692827006
45, 39635.52, 187500.00, 187500.00, 187500.00, 187500.00, 187500.00, 187500.00, 0.00, 0, 12:00:27.006, 1595692827006
46, 40844.30, 187500.00, 187500.00, 187500.00, 187500.00, 187500.00, 187500.00, 0.00, 0, 12:00:27.013, 1595692827013
47, 40867.32, 187500.00, 187500.00, 187500.00, 187500.00, 187500.00, 187500.00, 0.00, 0, 12:00:27.021, 1595692827021
48, 38856.85, 187500.00, 187500.00, 187500.00, 187500.00, 187500.00, 187500.00, 0.00, 0, 12:00:27.021, 1595692827021
49, 39448.88, 187500.00, 187500.00, 187500.00, 187500.00, 187500.00, 187500.00, 0.00, 0, 12:00:27.028, 1595692827028
50, 40590.57, 187500.00, 187500.00, 187500.00, 187500.00, 187500.00, 187500.00, 0.00, 0, 12:00:27.028, 1595692827028
51, 41161.25, 187500.00, 187500.00, 187500.00, 187500.00, 187500.00, 187500.00, 0.00, 0, 12:00:27.035, 1595692827035
52, 39040.14, 187500.00, 187500.00, 187500.00, 187500.00, 187500.00, 187500.00, 0.00, 0, 12:00:27.036, 1595692827036
53, 39262.27, 187500.00, 187500.00, 187500.00, 187500.00, 187500.00, 187500.00, 0.00, 0, 12:00:27.043, 1595692827043
54, 40353.26, 187500.00, 187500.00, 187500.00, 187500.00, 187500.00, 187500.00, 0.00, 0, 12:00:27.043, 1595692827043
55, 41319.95, 187500.00, 187500.00, 187500.00, 187500.00, 187500.00, 187500.00, 0.00, 0, 12:00:27.050, 1595692827050
56, 39330.42, 187500.00, 187500.00, 187500.00, 187500.00, 187500.00, 187500.00, 0.00, 0, 12:00:27.051, 1595692827051
57, 39074.04, 187500.00, 187500.00, 187500.00, 187500.00, 187500.00, 187500.00, 0.00, 0, 12:00:27.058, 1595692827058
58, 40132.20, 187500.00, 187500.00, 187500.00, 187500.00, 187500.00, 187500.00, 0.00, 0, 12:00:27.058, 1595692827058
59, 41347.35, 187500.00, 187500.00, 187500.00, 187500.00, 187500.00, 187500.00, 0.00, 0, 12:00:27.066, 1595692827066
60, 39728.35, 187500.00, 187500.00, 187500.00, 187500.00, 187500.00, 187500.00, 0.00, 0, 12:00:27.067, 1595692827067
61, 38911.03, 187500.00, 187500.00, 187500.00, 187500.00, 187500.00, 187500.00, 0.00, 0, 12:00:27.073, 1595692827073
62, 39933.09, 187500.00, 187500.00, 187500.00, 187500.00, 187500.00, 187500.00, 0.00, 0, 12:00:27.074, 1595692827074
63, 41252.94, 187500.00, 187500.00, 187500.00, 187500.00, 187500.00, 187500.00, 0.00, 0, 12:00:27.080, 1595692827080
64, 40158.35, 187500.00, 187500.00, 187500.00, 187500.00, 187500.00, 187500.00, 0.00, 0, 12:00:27.088, 1595692827088
65, 38798.40, 187500.00, 187500.00, 187500.00, 187500.00, 187500.00, 187500.00, 0.00, 0, 12:00:27.088, 1595692827088
66, 39757.00, 187500.00, 187500.00, 187500.00, 187500.00, 187500.00, 187500.00, 0.00, 0, 12:00:27.096, 1595692827096
67, 41064.87, 187500.00, 187500.00, 187500.00, 187500.00, 187500.00, 187500.00, 0.00, 0, 12:00:27.096, 1595692827096
68, 40594.32, 187500.00, 187500.00, 187500.00, 187500.00, 187500.00, 187500.00, 0.00, 0, 12:00:27.103, 1595692827103
69, 38783.47, 187500.00, 187500.00, 187500.00, 187500.00, 187500.00, 187500.00, 0.00, 0, 12:00:27.103, 1595692827103
70, 39593.41, 187500.00, 187500.00, 187500.00, 187500.00, 187500.00, 187500.00, 0.00, 0, 12:00:27.110, 1595692827110
71, 40819.56, 187500.00, 187500.00, 187500.00, 187500.00, 187500.00, 187500.00, 0.00, 0, 12:00:27.110, 1595692827110
72, 40962.45, 187500.00, 187500.00, 187500.00, 187500.00, 187500.00, 187500.00, 0.00, 0, 12:00:27.118, 1595692827118
73, 38869.70, 187500.00, 187500.00, 187500.00, 187500.00, 187500.00, 187500.00, 0.00, 0, 12:00:27.118, 1595692827118
74, 39408.72, 187500.00, 187500.00, 187500.00, 187500.00, 187500.00, 187500.00, 0.00, 0, 12:00:27.128, 1595692827128
75, 40558.76, 187500.00, 187500.00, 187500.00, 187500.00, 187500.00, 187500.00, 0.00, 0, 12:00:27.128, 1595692827128
76, 41227.86, 187500.00, 187500.00, 187500.00, 187500.00, 187500.00, 187500.00, 0.00, 0, 12:00:27.133, 1595692827133
77, 39075.68, 187500.00, 187500.00, 187500.00, 187500.00, 187500.00, 187500.00, 0.00, 0, 12:00:27.133, 1595692827133
78, 39207.60, 187500.00, 187500.00, 187500.00, 187500.00, 187500.00, 187500.00, 0.00, 0, 12:00:27.140, 1595692827140
79, 40307.77, 187500.00, 187500.00, 187500.00, 187500.00, 187500.00, 187500.00, 0.00, 0, 12:00:27.148, 1595692827148
80, 41360.49, 187500.00, 187500.00, 187500.00, 187500.00, 187500.00, 187500.00, 0.00, 0, 12:00:27.148, 1595692827148
81, 39403.09, 187500.00, 187500.00, 187500.00, 187500.00, 187500.00, 187500.00, 0.00, 0, 12:00:27.157, 1595692827157
82, 39027.66, 187500.00, 187500.00, 187500.00, 187500.00, 187500.00, 187500.00, 0.00, 0, 12:00:27.158, 1595692827158
83, 40097.57, 187500.00, 187500.00, 187500.00, 187500.00, 187500.00, 187500.00, 0.00, 0, 12:00:27.163, 1595692827163
84, 41360.43, 187500.00, 187500.00, 187500.00, 187500.00, 187500.00, 187500.00, 0.00, 0, 12:00:27.163, 1595692827163
85, 39811.03, 187500.00, 187500.00, 187500.00, 187500.00, 187500.00, 187500.00, 0.00, 0, 12:00:27.171, 1595692827171
86, 38874.84, 187500.00, 187500.00, 187500.00, 187500.00, 187500.00, 187500.00, 0.00, 0, 12:00:27.171, 1595692827171
87, 39906.09, 187500.00, 187500.00, 187500.00, 187500.00, 187500.00, 187500.00, 0.00, 0, 12:00:27.179, 1595692827179
88, 41241.87, 187500.00, 187500.00, 187500.00, 187500.00, 187500.00, 187500.00, 0.00, 0, 12:00:27.179, 1595692827179
89, 40256.16, 187500.00, 187500.00, 187500.00, 187500.00, 187500.00, 187500.00, 0.00, 0, 12:00:27.185, 1595692827185
90, 38783.88, 187500.00, 187500.00, 187500.00, 187500.00, 187500.00, 187500.00, 0.00, 0, 12:00:27.185, 1595692827185
91, 39731.59, 187500.00, 187500.00, 187500.00, 187500.00, 187500.00, 187500.00, 0.00, 0, 12:00:27.193, 1595692827193
92, 41033.53, 187500.00, 187500.00, 187500.00, 187500.00, 187500.00, 187500.00, 0.00, 0, 12:00:27.193, 1595692827193
93, 40697.41, 187500.00, 187500.00, 187500.00, 187500.00, 187500.00, 187500.00, 0.00, 0, 12:00:27.200, 1595692827200
94, 38786.51, 187500.00, 187500.00, 187500.00, 187500.00, 187500.00, 187500.00, 0.00, 0, 12:00:27.208, 1595692827208
95, 39560.80, 187500.00, 187500.00, 187500.00, 187500.00, 187500.00, 187500.00, 0.00, 0, 12:00:27.209, 1595692827209
96, 40773.47, 187500.00, 187500.00, 187500.00, 187500.00, 187500.00, 187500.00, 0.00, 0, 12:00:27.215, 1595692827215
97, 41046.03, 187500.00, 187500.00, 187500.00, 187500.00, 187500.00, 187500.00, 0.00, 0, 12:00:27.215, 1595692827215
98, 38900.35, 187500.00, 187500.00, 187500.00, 187500.00, 187500.00, 187500.00, 0.00, 0, 12:00:27.223, 1595692827223
99, 39372.98, 187500.00, 187500.00, 187500.00, 187500.00, 187500.00, 187500.00, 0.00, 0, 12:00:27.223, 1595692827223
100, 40520.94, 187500.00, 187500.00, 187500.00, 187500.00, 187500.00, 187500.00, 0.00, 0, 12:00:27.231, 1595692827231
101, 41292.10, 187500.00, 187500.00, 187500.00, 187500.00, 187500.00, 187500.00, 0.00, 0, 12:00:27.232, 1595692827232
102, 39144.23, 187500.00, 187500.00, 187500.00, 187500.00, 187500.00, 187500.00, 0.00, 0, 12:00:27.238, 1595692827238
103, 39181.54, 187500.00, 187500.00, 187500.00, 187500.00, 187500.00, 187500.00, 0.00, 0, 12:00:27.239, 1595692827239
104, 40281.95, 187500.00, 187500.00, 187500.00, 187500.00, 187500.00, 187500.00, 0.00, 0, 12:00:27.246, 1595692827246
105, 41393.93, 187500.00, 187500.00, 187500.00, 187500.00, 187500.00, 187500.00, 0.00, 0, 12:00:27.246, 1595692827246
106, 39491.15, 187500.00, 187500.00, 187500.00, 187500.00, 187500.00, 187500.00, 0.00, 0, 12:00:27.253, 1595692827253
107, 38999.61, 187500.00, 187500.00, 187500.00, 187500.00, 187500.00, 187500.00, 0.00, 0, 12:00:27.254, 1595692827254
108, 40069.30, 187500.00, 187500.00, 187500.00, 187500.00, 187500.00, 187500.00, 0.00, 0, 12:00:27.261, 1595692827261
109, 41359.06, 187500.00, 187500.00, 187500.00, 187500.00, 187500.00, 187500.00, 0.00, 0, 12:00:27.269, 1595692827269
110, 39914.07, 187500.00, 187500.00, 187500.00, 187500.00, 187500.00, 187500.00, 0.00, 0, 12:00:27.270, 1595692827270
111, 38852.88, 187500.00, 187500.00, 187500.00, 187500.00, 187500.00, 187500.00, 0.00, 0, 12:00:27.275, 1595692827275
112, 39877.43, 187500.00, 187500.00, 187500.00, 187500.00, 187500.00, 187500.00, 0.00, 0, 12:00:27.275, 1595692827275
113, 41219.77, 187500.00, 187500.00, 187500.00, 187500.00, 187500.00, 187500.00, 0.00, 0, 12:00:27.283, 1595692827283
114, 40374.25, 187500.00, 187500.00, 187500.00, 187500.00, 187500.00, 187500.00, 0.00, 0, 12:00:27.283, 1595692827283
115, 38793.26, 187500.00, 187500.00, 187500.00, 187500.00, 187500.00, 187500.00, 0.00, 0, 12:00:27.292, 1595692827292
116, 39720.68, 187500.00, 187500.00, 187500.00, 187500.00, 187500.00, 187500.00, 0.00, 0, 12:00:27.292, 1595692827292
117, 41004.72, 187500.00, 187500.00, 187500.00, 187500.00, 187500.00, 187500.00, 0.00, 0, 12:00:27.299, 1595692827299
118, 40793.74, 187500.00, 187500.00, 187500.00, 187500.00, 187500.00, 187500.00, 0.00, 0, 12:00:27.299, 1595692827299
119, 38806.45, 187500.00, 187500.00, 187500.00, 187500.00, 187500.00, 187500.00, 0.00, 0, 12:00:27.306, 1595692827306
120, 39534.76, 187500.00, 187500.00, 187500.00, 187500.00, 187500.00, 187500.00, 0.00, 0, 12:00:27.306, 1595692827306
121, 40734.36, 187500.00, 187500.00, 187500.00, 187500.00, 187500.00, 187500.00, 0.00, 0, 12:00:27.314, 1595692827314
122, 41129.15, 187500.00, 187500.00, 187500.00, 187500.00, 187500.00, 187500.00, 0.00, 0, 12:00:27.314, 1595692827314
123, 38952.94, 187500.00, 187500.00, 187500.00, 187500.00, 187500.00, 187500.00, 0.00, 0, 12:00:27.320, 1595692827320
124, 39345.28, 187500.00, 187500.00, 187500.00, 187500.00, 187500.00, 187500.00, 0.00, 0, 12:00:27.320, 1595692827320
125, 40503.91, 187500.00, 187500.00, 187500.00, 187500.00, 187500.00, 187500.00, 0.00, 0, 12:00:27.327, 1595692827327
126, 41491.23, 187500.00, 187500.00, 187500.00, 187500.00, 187500.00, 187500.00, 0.00, 0, 12:00:27.337, 1595692827337
127, 39181.55, 187500.00, 187500.00, 187500.00, 187500.00, 187500.00, 187500.00, 0.00, 0, 12:00:27.337, 1595692827337
128, 39075.18, 187500.00, 187500.00, 187500.00, 187500.00, 187500.00, 187500.00, 0.00, 0, 12:00:27.344, 1595692827344
129, 40269.28, 187500.00, 187500.00, 187500.00, 187500.00, 187500.00, 187500.00, 0.00, 0, 12:00:27.344, 1595692827344
130, 41556.45, 187500.00, 187500.00, 187500.00, 187500.00, 187500.00, 187500.00, 0.00, 0, 12:00:27.350, 1595692827350
131, 39561.31, 187500.00, 187500.00, 187500.00, 187500.00, 187500.00, 187500.00, 0.00, 0, 12:00:27.350, 1595692827350
132, 38880.77, 187500.00, 187500.00, 187500.00, 187500.00, 187500.00, 187500.00, 0.00, 0, 12:00:27.358, 1595692827358
133, 40050.77, 187500.00, 187500.00, 187500.00, 187500.00, 187500.00, 187500.00, 0.00, 0, 12:00:27.358, 1595692827358
134, 41495.30, 187500.00, 187500.00, 187500.00, 187500.00, 187500.00, 187500.00, 0.00, 0, 12:00:27.367, 1595692827367
135, 40034.95, 187500.00, 187500.00, 187500.00, 187500.00, 187500.00, 187500.00, 0.00, 0, 12:00:27.368, 1595692827368
136, 38737.54, 187500.00, 187500.00, 187500.00, 187500.00, 187500.00, 187500.00, 0.00, 0, 12:00:27.374, 1595692827374
137, 39854.32, 187500.00, 187500.00, 187500.00, 187500.00, 187500.00, 187500.00, 0.00, 0, 12:00:27.374, 1595692827374
138, 41315.21, 187500.00, 187500.00, 187500.00, 187500.00, 187500.00, 187500.00, 0.00, 0, 12:00:27.381, 1595692827381
139, 40531.33, 187500.00, 187500.00, 187500.00, 187500.00, 187500.00, 187500.00, 0.00, 0, 12:00:27.381, 1595692827381
140, 38674.62, 187500.00, 187500.00, 187500.00, 187500.00, 187500.00, 187500.00, 0.00, 0, 12:00:27.388, 1595692827388
141, 39659.73, 187500.00, 187500.00, 187500.00, 187500.00, 187500.00, 187500.00, 0.00, 0, 12:00:27.396, 1595692827396
142, 41056.38, 187500.00, 187500.00, 187500.00, 187500.00, 187500.00, 187500.00, 0.00, 0, 12:00:27.396, 1595692827396
143, 40976.40, 187500.00, 187500.00, 187500.00, 187500.00, 187500.00, 187500.00, 0.00, 0, 12:00:27.404, 1595692827404
144, 38728.89, 187500.00, 187500.00, 187500.00, 187500.00, 187500.00, 187500.00, 0.00, 0, 12:00:27.405, 1595692827405
145, 39464.89, 187500.00, 187500.00, 187500.00, 187500.00, 187500.00, 187500.00, 0.00, 0, 12:00:27.410, 1595692827410
146, 40766.54, 187500.00, 187500.00, 187500.00, 187500.00, 187500.00, 187500.00, 0.00, 0, 12:00:27.411, 1595692827411
147, 41325.49, 187500.00, 187500.00, 187500.00, 187500.00, 187500.00, 187500.00, 0.00, 0, 12:00:27.418, 1595692827418
148, 38923.71, 187500.00, 187500.00, 187500.00, 187500.00, 187500.00, 187500.00, 0.00, 0, 12:00:27.419, 1595692827419
149, 39251.11, 187500.00, 187500.00, 187500.00, 187500.00, 187500.00, 187500.00, 0.00, 0, 12:00:27.426, 1595692827426
150, 40481.80, 187500.00, 187500.00, 187500.00, 187500.00, 187500.00, 187500.00, 0.00, 0, 12:00:27.426, 1595692827426
151, 41524.33, 187500.00, 187500.00, 187500.00, 187500.00, 187500.00, 187500.00, 0.00, 0, 12:00:27.433, 1595692827433
152, 39252.19, 187500.00, 187500.00, 187500.00, 187500.00, 187500.00, 187500.00, 0.00, 0, 12:00:27.433, 1595692827433
153, 39050.98, 187500.00, 187500.00, 187500.00, 187500.00, 187500.00, 187500.00, 0.00, 0, 12:00:27.442, 1595692827442
154, 40247.89, 187500.00, 187500.00, 187500.00, 187500.00, 187500.00, 187500.00, 0.00, 0, 12:00:27.443, 1595692827443
155, 41574.80, 187500.00, 187500.00, 187500.00, 187500.00, 187500.00, 187500.00, 0.00, 0, 12:00:27.448, 1595692827448
156, 39673.65, 187500.00, 187500.00, 187500.00, 187500.00, 187500.00, 187500.00, 0.00, 0, 12:00:27.456, 1595692827456
157, 38859.96, 187500.00, 187500.00, 187500.00, 187500.00, 187500.00, 187500.00, 0.00, 0, 12:00:27.456, 1595692827456
158, 40024.02, 187500.00, 187500.00, 187500.00, 187500.00, 187500.00, 187500.00, 0.00, 0, 12:00:27.463, 1595692827463
159, 41480.32, 187500.00, 187500.00, 187500.00, 187500.00, 187500.00, 187500.00, 0.00, 0, 12:00:27.464, 1595692827464
160, 40162.35, 187500.00, 187500.00, 187500.00, 187500.00, 187500.00, 187500.00, 0.00, 0, 12:00:27.471, 1595692827471
161, 38733.79, 187500.00, 187500.00, 187500.00, 187500.00, 187500.00, 187500.00, 0.00, 0, 12:00:27.471, 1595692827471
162, 39826.74, 187500.00, 187500.00, 187500.00, 187500.00, 187500.00, 187500.00, 0.00, 0, 12:00:27.479, 1595692827479
163, 41273.19, 187500.00, 187500.00, 187500.00, 187500.00, 187500.00, 187500.00, 0.00, 0, 12:00:27.479, 1595692827479
164, 40646.51, 187500.00, 187500.00, 187500.00, 187500.00, 187500.00, 187500.00, 0.00, 0, 12:00:27.485, 1595692827485
165, 38699.12, 187500.00, 187500.00, 187500.00, 187500.00, 187500.00, 187500.00, 0.00, 0, 12:00:27.486, 1595692827486
166, 39637.64, 187500.00, 187500.00, 187500.00, 187500.00, 187500.00, 187500.00, 0.00, 0, 12:00:27.493, 1595692827493
167, 41006.46, 187500.00, 187500.00, 187500.00, 187500.00, 187500.00, 187500.00, 0.00, 0, 12:00:27.493, 1595692827493
168, 41081.03, 187500.00, 187500.00, 187500.00, 187500.00, 187500.00, 187500.00, 0.00, 0, 12:00:27.501, 1595692827501
169, 38778.91, 187500.00, 187500.00, 187500.00, 187500.00, 187500.00, 187500.00, 0.00, 0, 12:00:27.501, 1595692827501
170, 39434.89, 187500.00, 187500.00, 187500.00, 187500.00, 187500.00, 187500.00, 0.00, 0, 12:00:27.510, 1595692827510
171, 40716.41, 187500.00, 187500.00, 187500.00, 187500.00, 187500.00, 187500.00, 0.00, 0, 12:00:27.515, 1595692827515
172, 41384.75, 187500.00, 187500.00, 187500.00, 187500.00, 187500.00, 187500.00, 0.00, 0, 12:00:27.516, 1595692827516
173, 38989.84, 187500.00, 187500.00, 187500.00, 187500.00, 187500.00, 187500.00, 0.00, 0, 12:00:27.523, 1595692827523
174, 39216.49, 187500.00, 187500.00, 187500.00, 187500.00, 187500.00, 187500.00, 0.00, 0, 12:00:27.523, 1595692827523
175, 40434.75, 187500.00, 187500.00, 187500.00, 187500.00, 187500.00, 187500.00, 0.00, 0, 12:00:27.531, 1595692827531
176, 41546.66, 187500.00, 187500.00, 187500.00, 187500.00, 187500.00, 187500.00, 0.00, 0, 12:00:27.531, 1595692827531
177, 39337.91, 187500.00, 187500.00, 187500.00, 187500.00, 187500.00, 187500.00, 0.00, 0, 12:00:27.538, 1595692827538
178, 39003.59, 187500.00, 187500.00, 187500.00, 187500.00, 187500.00, 187500.00, 0.00, 0, 12:00:27.539, 1595692827539
179, 40185.35, 187500.00, 187500.00, 187500.00, 187500.00, 187500.00, 187500.00, 0.00, 0, 12:00:27.545, 1595692827545
180, 41550.15, 187500.00, 187500.00, 187500.00, 187500.00, 187500.00, 187500.00, 0.00, 0, 12:00:27.546, 1595692827546
181, 39765.23, 187500.00, 187500.00, 187500.00, 187500.00, 187500.00, 187500.00, 0.00, 0, 12:00:27.553, 1595692827553
182, 38824.49, 187500.00, 187500.00, 187500.00, 187500.00, 187500.00, 187500.00, 0.00, 0, 12:00:27.554, 1595692827554
183, 39970.80, 187500.00, 187500.00, 187500.00, 187500.00, 187500.00, 187500.00, 0.00, 0, 12:00:27.561, 1595692827561
184, 41431.24, 187500.00, 187500.00, 187500.00, 187500.00, 187500.00, 187500.00, 0.00, 0, 12:00:27.562, 1595692827562
185, 40244.45, 187500.00, 187500.00, 187500.00, 187500.00, 187500.00, 187500.00, 0.00, 0, 12:00:27.568, 1595692827568
186, 38701.46, 187500.00, 187500.00, 187500.00, 187500.00, 187500.00, 187500.00, 0.00, 0, 12:00:27.568, 1595692827568
187, 39763.53, 187500.00, 187500.00, 187500.00, 187500.00, 187500.00, 187500.00, 0.00, 0, 12:00:27.575, 1595692827575
188, 41194.00, 187500.00, 187500.00, 187500.00, 187500.00, 187500.00, 187500.00, 0.00, 0, 12:00:27.584, 1595692827584
189, 40717.70, 187500.00, 187500.00, 187500.00, 187500.00, 187500.00, 187500.00, 0.00, 0, 12:00:27.584, 1595692827584
190, 38678.62, 187500.00, 187500.00, 187500.00, 187500.00, 187500.00, 187500.00, 0.00, 0, 12:00:27.591, 1595692827591
191, 39566.95, 187500.00, 187500.00, 187500.00, 187500.00, 187500.00, 187500.00, 0.00, 0, 12:00:27.591, 1595692827591
192, 40909.12, 187500.00, 187500.00, 187500.00, 187500.00, 187500.00, 187500.00, 0.00, 0, 12:00:27.598, 1595692827598
193, 41112.66, 187500.00, 187500.00, 187500.00, 187500.00, 187500.00, 187500.00, 0.00, 0, 12:00:27.598, 1595692827598
194, 38777.91, 187500.00, 187500.00, 187500.00, 187500.00, 187500.00, 187500.00, 0.00, 0, 12:00:27.606, 1595692827606
195, 39360.01, 187500.00, 187500.00, 187500.00, 187500.00, 187500.00, 187500.00, 0.00, 0, 12:00:27.606, 1595692827606
196, 40624.36, 187500.00, 187500.00, 187500.00, 187500.00, 187500.00, 187500.00, 0.00, 0, 12:00:27.614, 1595692827614
197, 41400.61, 187500.00, 187500.00, 187500.00, 187500.00, 187500.00, 187500.00, 0.00, 0, 12:00:27.615, 1595692827615
198, 39023.93, 187500.00, 187500.00, 187500.00, 187500.00, 187500.00, 187500.00, 0.00, 0, 12:00:27.620, 1595692827620
199, 39134.98, 187500.00, 187500.00, 187500.00, 187500.00, 187500.00, 187500.00, 0.00, 0, 12:00:27.621, 1595692827621
200, 40338.37, 187500.00, 187500.00, 187500.00, 187500.00, 187500.00, 187500.00, 0.00, 0, 12:00:27.628, 1595692827628
201, 41515.48, 187500.00, 187500.00, 187500.00, 187500.00, 187500.00, 187500.00, 0.00, 0, 12:00:27.629, 1595692827629
202, 39381.52, 187500.00, 187500.00, 187500.00, 187500.00, 187500.00, 187500.00, 0.00, 0, 12:00:27.637, 1595692827637
203, 38926.55, 187500.00, 187500.00, 187500.00, 187500.00, 187500.00, 187500.00, 0.00, 0, 12:00:27.644, 1595692827644
204, 40100.44, 187500.00, 187500.00, 187500.00, 187500.00, 187500.00, 187500.00, 0.00, 0, 12:00:27.644, 1595692827644
205, 41497.06, 187500.00, 187500.00, 187500.00, 187500.00, 187500.00, 187500.00, 0.00, 0, 12:00:27.650, 1595692827650
206, 39825.13, 187500.00, 187500.00, 187500.00, 187500.00, 187500.00, 187500.00, 0.00, 0, 12:00:27.651, 1595692827651
207, 38748.00, 187500.00, 187500.00, 187500.00, 187500.00, 187500.00, 187500.00, 0.00, 0, 12:00:27.658, 1595692827658
208, 39889.44, 187500.00, 187500.00, 187500.00, 187500.00, 187500.00, 187500.00, 0.00, 0, 12:00:27.658, 1595692827658
209, 41353.36, 187500.00, 187500.00, 187500.00, 187500.00, 187500.00, 187500.00, 0.00, 0, 12:00:27.666, 1595692827666
210, 40323.04, 187500.00, 187500.00, 187500.00, 187500.00, 187500.00, 187500.00, 0.00, 0, 12:00:27.666, 1595692827666
211, 38663.00, 187500.00, 187500.00, 187500.00, 187500.00, 187500.00, 187500.00, 0.00, 0, 12:00:27.673, 1595692827673
212, 39702.87, 187500.00, 187500.00, 187500.00, 187500.00, 187500.00, 187500.00, 0.00, 0, 12:00:27.674, 1595692827674
213, 41122.11, 187500.00, 187500.00, 187500.00, 187500.00, 187500.00, 187500.00, 0.00, 0, 12:00:27.681, 1595692827681
214, 40794.12, 187500.00, 187500.00, 187500.00, 187500.00, 187500.00, 187500.00, 0.00, 0, 12:00:27.681, 1595692827681
215, 38672.85, 187500.00, 187500.00, 187500.00, 187500.00, 187500.00, 187500.00, 0.00, 0, 12:00:27.689, 1595692827689
216, 39511.54, 187500.00, 187500.00, 187500.00, 187500.00, 187500.00, 187500.00, 0.00, 0, 12:00:27.689, 1595692827689
217, 40841.24, 187500.00, 187500.00, 187500.00, 187500.00, 187500.00, 187500.00, 0.00, 0, 12:00:27.696, 1595692827696
218, 41184.12, 187500.00, 187500.00, 187500.00, 187500.00, 187500.00, 187500.00, 0.00, 0, 12:00:27.703, 1595692827703
219, 38813.16, 187500.00, 187500.00, 187500.00, 187500.00, 187500.00, 187500.00, 0.00, 0, 12:00:27.703, 1595692827703
220, 39305.68, 187500.00, 187500.00, 187500.00, 187500.00, 187500.00, 187500.00, 0.00, 0, 12:00:27.711, 1595692827711
221, 40560.73, 187500.00, 187500.00, 187500.00, 187500.00, 187500.00, 187500.00, 0.00, 0, 12:00:27.711, 1595692827711
222, 41438.37, 187500.00, 187500.00, 187500.00, 187500.00, 187500.00, 187500.00, 0.00, 0, 12:00:27.718, 1595692827718
223, 39082.61, 187500.00, 187500.00, 187500.00, 187500.00, 187500.00, 187500.00, 0.00, 0, 12:00:27.718, 1595692827718
224, 39091.79, 187500.00, 187500.00, 187500.00, 187500.00, 187500.00, 187500.00, 0.00, 0, 12:00:27.726, 1595692827726
225, 40287.79, 187500.00, 187500.00, 187500.00, 187500.00, 187500.00, 187500.00, 0.00, 0, 12:00:27.727, 1595692827727
226, 41521.29, 187500.00, 187500.00, 187500.00, 187500.00, 187500.00, 187500.00, 0.00, 0, 12:00:27.733, 1595692827733
227, 39467.12, 187500.00, 187500.00, 187500.00, 187500.00, 187500.00, 187500.00, 0.00, 0, 12:00:27.733, 1595692827733
228, 38882.96, 187500.00, 187500.00, 187500.00, 187500.00, 187500.00, 187500.00, 0.00, 0, 12:00:27.742, 1595692827742
229, 40054.10, 187500.00, 187500.00, 187500.00, 187500.00, 187500.00, 187500.00, 0.00, 0, 12:00:27.742, 1595692827742
230, 41480.66, 187500.00, 187500.00, 187500.00, 187500.00, 187500.00, 187500.00, 0.00, 0, 12:00:27.748, 1595692827748
231, 39937.18, 187500.00, 187500.00, 187500.00, 187500.00, 187500.00, 187500.00, 0.00, 0, 12:00:27.749, 1595692827749
232, 38731.95, 187500.00, 187500.00, 187500.00, 187500.00, 187500.00, 187500.00, 0.00, 0, 12:00:27.755, 1595692827755
233, 39856.13, 187500.00, 187500.00, 187500.00, 187500.00, 187500.00, 187500.00, 0.00, 0, 12:00:27.763, 1595692827763
234, 41315.88, 187500.00, 187500.00, 187500.00, 187500.00, 187500.00, 187500.00, 0.00, 0, 12:00:27.763, 1595692827763
235, 40428.85, 187500.00, 187500.00, 187500.00, 187500.00, 187500.00, 187500.00, 0.00, 0, 12:00:27.771, 1595692827771
236, 38654.61, 187500.00, 187500.00, 187500.00, 187500.00, 187500.00, 187500.00, 0.00, 0, 12:00:27.772, 1595692827772
237, 39663.01, 187500.00, 187500.00, 187500.00, 187500.00, 187500.00, 187500.00, 0.00, 0, 12:00:27.778, 1595692827778
238, 41068.16, 187500.00, 187500.00, 187500.00, 187500.00, 187500.00, 187500.00, 0.00, 0, 12:00:27.779, 1595692827779
239, 40888.22, 187500.00, 187500.00, 187500.00, 187500.00, 187500.00, 187500.00, 0.00, 0, 12:00:27.786, 1595692827786
240, 38686.69, 187500.00, 187500.00, 187500.00, 187500.00, 187500.00, 187500.00, 0.00, 0, 12:00:27.786, 1595692827786
241, 39474.03, 187500.00, 187500.00, 187500.00, 187500.00, 187500.00, 187500.00, 0.00, 0, 12:00:27.794, 1595692827794
242, 40785.67, 187500.00, 187500.00, 187500.00, 187500.00, 187500.00, 187500.00, 0.00, 0, 12:00:27.795, 1595692827795
243, 41246.84, 187500.00, 187500.00, 187500.00, 187500.00, 187500.00, 187500.00, 0.00, 0, 12:00:27.801, 1595692827801
244, 38852.63, 187500.00, 187500.00, 187500.00, 187500.00, 187500.00, 187500.00, 0.00, 0, 12:00:27.801, 1595692827801
245, 39256.97, 187500.00, 187500.00, 187500.00, 187500.00, 187500.00, 187500.00, 0.00, 0, 12:00:27.809, 1595692827809
246, 40500.71, 187500.00, 187500.00, 187500.00, 187500.00, 187500.00, 187500.00, 0.00, 0, 12:00:27.809, 1595692827809
247, 41466.82, 187500.00, 187500.00, 187500.00, 187500.00, 187500.00, 187500.00, 0.00, 0, 12:00:27.817, 1595692827817
248, 39147.87, 187500.00, 187500.00, 187500.00, 187500.00, 187500.00, 187500.00, 0.00, 0, 12:00:27.817, 1595692827817
249, 39041.16, 187500.00, 187500.00, 187500.00, 187500.00, 187500.00, 187500.00, 0.00, 0, 12:00:27.824, 1595692827824
250, 40237.21, 187500.00, 187500.00, 187500.00, 187500.00, 187500.00, 187500.00, 0.00, 0, 12:00:27.830, 1595692827830
251, 41527.42, 187500.00, 187500.00, 187500.00, 187500.00, 187500.00, 187500.00, 0.00, 0, 12:00:27.830, 1595692827830
252, 39561.94, 187500.00, 187500.00, 187500.00, 187500.00, 187500.00, 187500.00, 0.00, 0, 12:00:27.839, 1595692827839
253, 38848.40, 187500.00, 187500.00, 187500.00, 187500.00, 187500.00, 187500.00, 0.00, 0, 12:00:27.839, 1595692827839
254, 40013.71, 187500.00, 187500.00, 187500.00, 187500.00, 187500.00, 187500.00, 0.00, 0, 12:00:27.846, 1595692827846
255, 41454.64, 187500.00, 187500.00, 187500.00, 187500.00, 187500.00, 187500.00, 0.00, 0, 12:00:27.846, 1595692827846
0, 40028.75, 187500.00, 187500.00, 187500.00, 187500.00, 187500.00, 187500.00, 0.00, 0, 12:00:27.853, 1595692827853
1, 38693.62, 187500.00, 187500.00, 187500.00, 187500.00, 187500.00, 187500.00, 0.00, 0, 12:00:27.853, 1595692827853
2, 39801.26, 187500.00, 187500.00, 187500.00, 187500.00, 187500.00, 187500.00, 0.00, 0, 12:00:27.861, 1595692827861
3, 41263.15, 187500.00, 187500.00, 187500.00, 187500.00, 187500.00, 187500.00, 0.00, 0, 12:00:27.861, 1595692827861
4, 40520.25, 187500.00, 187500.00, 187500.00, 187500.00, 187500.00, 187500.00, 0.00, 0, 12:00:27.869, 1595692827869
5, 38641.76, 187500.00, 187500.00, 187500.00, 187500.00, 187500.00, 187500.00, 0.00, 0, 12:00:27.869, 1595692827869
6, 39620.90, 187500.00, 187500.00, 187500.00, 187500.00, 187500.00, 187500.00, 0.00, 0, 12:00:27.877, 1595692827877
7, 41002.35, 187500.00, 187500.00, 187500.00, 187500.00, 187500.00, 187500.00, 0.00, 0, 12:00:27.878, 1595692827878
8, 40957.31, 187500.00, 187500.00, 187500.00, 187500.00, 187500.00, 187500.00, 0.00, 0, 12:00:27.882, 1595692827882
9, 38695.54, 187500.00, 187500.00, 187500.00, 187500.00, 187500.00, 187500.00, 0.00, 0, 12:00:27.890, 1595692827890
10, 39409.34, 187500.00, 187500.00, 187500.00, 187500.00, 187500.00, 187500.00, 0.00, 0, 12:00:27.891, 1595692827891
11, 40705.79, 187500.00, 187500.00, 187500.00, 187500.00, 187500.00, 187500.00, 0.00, 0, 12:00:27.899, 1595692827899
12, 41291.18, 187500.00, 187500.00, 187500.00, 187500.00, 187500.00, 187500.00, 0.00, 0, 12:00:27.899, 1595692827899
13, 38890.80, 187500.00, 187500.00, 187500.00, 187500.00, 187500.00, 187500.00, 0.00, 0, 12:00:27.906, 1595692827906
14, 39205.65, 187500.00, 187500.00, 187500.00, 187500.00, 187500.00, 187500.00, 0.00, 0, 12:00:27.906, 1595692827906
15, 40436.79, 187500.00, 187500.00, 187500.00, 187500.00, 187500.00, 187500.00, 0.00, 0, 12:00:27.913, 1595692827913
16, 41492.12, 187500.00, 187500.00, 187500.00, 187500.00, 187500.00, 187500.00, 0.00, 0, 12:00:27.914, 1595692827914
17, 39228.41, 187500.00, 187500.00, 187500.00, 187500.00, 187500.00, 187500.00, 0.00, 0, 12:00:27.921, 1595692827921
18, 38996.86, 187500.00, 187500.00, 187500.00, 187500.00, 187500.00, 187500.00, 0.00, 0, 12:00:27.921, 1595692827921
19, 40182.07, 187500.00, 187500.00, 187500.00, 187500.00, 187500.00, 187500.00, 0.00, 0, 12:00:27.929, 1595692827929
20, 41522.34, 187500.00, 187500.00, 187500.00, 187500.00, 187500.00, 187500.00, 0.00, 0, 12:00:27.929, 1595692827929
21, 39645.36, 187500.00, 187500.00, 187500.00, 187500.00, 187500.00, 187500.00, 0.00, 0, 12:00:27.936, 1595692827936
22, 38801.15, 187500.00, 187500.00, 187500.00, 187500.00, 187500.00, 187500.00, 0.00, 0, 12:00:27.936, 1595692827936
23, 39968.25, 187500.00, 187500.00, 187500.00, 187500.00, 187500.00, 187500.00, 0.00, 0, 12:00:27.944, 1595692827944
24, 41434.03, 187500.00, 187500.00, 187500.00, 187500.00, 187500.00, 187500.00, 0.00, 0, 12:00:27.951, 1595692827951
25, 40142.41, 187500.00, 187500.00, 187500.00, 187500.00, 187500.00, 187500.00, 0.00, 0, 12:00:27.951, 1595692827951
26, 38677.97, 187500.00, 187500.00, 187500.00, 187500.00, 187500.00, 187500.00, 0.00, 0, 12:00:27.959, 1595692827959
27, 39763.71, 187500.00, 187500.00, 187500.00, 187500.00, 187500.00, 187500.00, 0.00, 0, 12:00:27.959, 1595692827959
28, 41213.11, 187500.00, 187500.00, 187500.00, 187500.00, 187500.00, 187500.00, 0.00, 0, 12:00:27.965, 1595692827965
29, 40616.16, 187500.00, 187500.00, 187500.00, 187500.00, 187500.00, 187500.00, 0.00, 0, 12:00:27.966, 1595692827966
30, 38637.31, 187500.00, 187500.00, 187500.00, 187500.00, 187500.00, 187500.00, 0.00, 0, 12:00:27.973, 1595692827973
31, 39572.80, 187500.00, 187500.00, 187500.00, 187500.00, 187500.00, 187500.00, 0.00, 0, 12:00:27.974, 1595692827974
32, 40946.67, 187500.00, 187500.00, 187500.00, 187500.00, 187500.00, 187500.00, 0.00, 0, 12:00:27.981, 1595692827981
33, 41048.17, 187500.00, 187500.00, 187500.00, 187500.00, 187500.00, 187500.00, 0.00, 0, 12:00:27.981, 1595692827981
34, 38729.89, 187500.00, 187500.00, 187500.00, 187500.00, 187500.00, 187500.00, 0.00, 0, 12:00:27.988, 1595692827988
35, 39378.56, 187500.00, 187500.00, 187500.00, 187500.00, 187500.00, 187500.00, 0.00, 0, 12:00:27.988, 1595692827988
36, 40657.17, 187500.00, 187500.00, 187500.00, 187500.00, 187500.00, 187500.00, 0.00, 0, 12:00:27.996, 1595692827996
37, 41350.35, 187500.00, 187500.00, 187500.00, 187500.00, 187500.00, 187500.00, 0.00, 0, 12:00:27.996, 1595692827996
38, 38949.57, 187500.00, 187500.00, 187500.00, 187500.00, 187500.00, 187500.00, 0.00, 0, 12:00:28.003, 1595692828003
39, 39153.73, 187500.00, 187500.00, 187500.00, 187500.00, 187500.00, 187500.00, 0.00, 0, 12:00:28.013, 1595692828013
40, 40375.50, 187500.00, 187500.00, 187500.00, 187500.00, 187500.00, 187500.00, 0.00, 0, 12:00:28.013, 1595692828013
41, 41507.39, 187500.00, 187500.00, 187500.00, 187500.00, 187500.00, 187500.00, 0.00, 0, 12:00:28.018, 1595692828018
42, 39310.21, 187500.00, 187500.00, 187500.00, 187500.00, 187500.00, 187500.00, 0.00, 0, 12:00:28.018, 1595692828018
43, 38951.69, 187500.00, 187500.00, 187500.00, 187500.00, 187500.00, 187500.00, 0.00, 0, 12:00:28.026, 1595692828026
44, 40136.11, 187500.00, 187500.00, 187500.00, 187500.00, 187500.00, 187500.00, 0.00, 0, 12:00:28.026, 1595692828026
45, 41514.18, 187500.00, 187500.00, 187500.00, 187500.00, 187500.00, 187500.00, 0.00, 0, 12:00:28.034, 1595692828034
46, 39744.60, 187500.00, 187500.00, 187500.00, 187500.00, 187500.00, 187500.00, 0.00, 0, 12:00:28.034, 1595692828034
47, 38766.39, 187500.00, 187500.00, 187500.00, 187500.00, 187500.00, 187500.00, 0.00, 0, 12:00:28.041, 1595692828041
48, 39914.05, 187500.00, 187500.00, 187500.00, 187500.00, 187500.00, 187500.00, 0.00, 0, 12:00:28.042, 1595692828042
49, 41384.77, 187500.00, 187500.00, 187500.00, 187500.00, 187500.00, 187500.00, 0.00, 0, 12:00:28.049, 1595692828049
50, 40229.34, 187500.00, 187500.00, 187500.00, 187500.00, 187500.00, 187500.00, 0.00, 0, 12:00:28.049, 1595692828049
51, 38638.36, 187500.00, 187500.00, 187500.00, 187500.00, 187500.00, 187500.00, 0.00, 0, 12:00:28.057, 1595692828057
52, 39704.63, 187500.00, 187500.00, 187500.00, 187500.00, 187500.00, 187500.00, 0.00, 0, 12:00:28.057, 1595692828057
53, 41140.35, 187500.00, 187500.00, 187500.00, 187500.00, 187500.00, 187500.00, 0.00, 0, 12:00:28.064, 1595692828064
54, 40683.41, 187500.00, 187500.00, 187500.00, 187500.00, 187500.00, 187500.00, 0.00, 0, 12:00:28.064, 1595692828064
55, 38619.48, 187500.00, 187500.00, 187500.00, 187500.00, 187500.00, 187500.00, 0.00, 0, 12:00:28.071, 1595692828071
56, 39507.87, 187500.00, 187500.00, 187500.00, 187500.00, 187500.00, 187500.00, 0.00, 0, 12:00:28.078, 1595692828078
57, 40856.15, 187500.00, 187500.00, 187500.00, 187500.00, 187500.00, 187500.00, 0.00, 0, 12:00:28.078, 1595692828078
58, 41090.57, 187500.00, 187500.00, 187500.00, 187500.00, 187500.00, 187500.00, 0.00, 0, 12:00:28.087, 1595692828087
59, 38734.07, 187500.00, 187500.00, 187500.00, 187500.00, 187500.00, 187500.00, 0.00, 0, 12:00:28.087, 1595692828087
60, 39305.92, 187500.00, 187500.00, 187500.00, 187500.00, 187500.00, 187500.00, 0.00, 0, 12:00:28.094, 1595692828094
61, 40568.55, 187500.00, 187500.00, 187500.00, 187500.00, 187500.00, 187500.00, 0.00, 0, 12:00:28.094, 1595692828094
62, 41367.15, 187500.00, 187500.00, 187500.00, 187500.00, 187500.00, 187500.00, 0.00, 0, 12:00:28.101, 1595692828101
63, 38979.63, 187500.00, 187500.00, 187500.00, 187500.00, 187500.00, 187500.00, 0.00, 0, 12:00:28.101, 1595692828101
64, 39087.03, 187500.00, 187500.00, 187500.00, 187500.00, 187500.00, 187500.00, 0.00, 0, 12:00:28.109, 1595692828109
65, 40305.63, 187500.00, 187500.00, 187500.00, 187500.00, 187500.00, 187500.00, 0.00, 0, 12:00:28.109, 1595692828109
66, 41501.13, 187500.00, 187500.00, 187500.00, 187500.00, 187500.00, 187500.00, 0.00, 0, 12:00:28.117, 1595692828117
67, 39362.25, 187500.00, 187500.00, 187500.00, 187500.00, 187500.00, 187500.00, 0.00, 0, 12:00:28.117, 1595692828117
68, 38887.07, 187500.00, 187500.00, 187500.00, 187500.00, 187500.00, 187500.00, 0.00, 0, 12:00:28.123, 1595692828123
69, 40076.25, 187500.00, 187500.00, 187500.00, 187500.00, 187500.00, 187500.00, 0.00, 0, 12:00:28.123, 1595692828123
70, 41483.36, 187500.00, 187500.00, 187500.00, 187500.00, 187500.00, 187500.00, 0.00, 0, 12:00:28.130, 1595692828130
71, 39823.16, 187500.00, 187500.00, 187500.00, 187500.00, 187500.00, 187500.00, 0.00, 0, 12:00:28.138, 1595692828138
72, 38717.31, 187500.00, 187500.00, 187500.00, 187500.00, 187500.00, 187500.00, 0.00, 0, 12:00:28.138, 1595692828138
73, 39860.49, 187500.00, 187500.00, 187500.00, 187500.00, 187500.00, 187500.00, 0.00, 0, 12:00:28.148, 1595692828148
74, 41333.78, 187500.00, 187500.00, 187500.00, 187500.00, 187500.00, 187500.00, 0.00, 0, 12:00:28.148, 1595692828148
75, 40318.10, 187500.00, 187500.00, 187500.00, 187500.00, 187500.00, 187500.00, 0.00, 0, 12:00:28.153, 1595692828153
76, 38626.79, 187500.00, 187500.00, 187500.00, 187500.00, 187500.00, 187500.00, 0.00, 0, 12:00:28.153, 1595692828153
77, 39669.11, 187500.00, 187500.00, 187500.00, 187500.00, 187500.00, 187500.00, 0.00, 0, 12:00:28.161, 1595692828161
78, 41091.49, 187500.00, 187500.00, 187500.00, 187500.00, 187500.00, 187500.00, 0.00, 0, 12:00:28.161, 1595692828161
79, 40778.81, 187500.00, 187500.00, 187500.00, 187500.00, 187500.00, 187500.00, 0.00, 0, 12:00:28.169, 1595692828169
80, 38627.97, 187500.00, 187500.00, 187500.00, 187500.00, 187500.00, 187500.00, 0.00, 0, 12:00:28.169, 1595692828169
81, 39463.32, 187500.00, 187500.00, 187500.00, 187500.00, 187500.00, 187500.00, 0.00, 0, 12:00:28.176, 1595692828176
82, 40799.29, 187500.00, 187500.00, 187500.00, 187500.00, 187500.00, 187500.00, 0.00, 0, 12:00:28.176, 1595692828176
83, 41160.33, 187500.00, 187500.00, 187500.00, 187500.00, 187500.00, 187500.00, 0.00, 0, 12:00:28.184, 1595692828184
84, 38771.76, 187500.00, 187500.00, 187500.00, 187500.00, 187500.00, 187500.00, 0.00, 0, 12:00:28.184, 1595692828184
85, 39253.82, 187500.00, 187500.00, 187500.00, 187500.00, 187500.00, 187500.00, 0.00, 0, 12:00:28.192, 1595692828192
86, 40504.51, 187500.00, 187500.00, 187500.00, 187500.00, 187500.00, 187500.00, 0.00, 0, 12:00:28.198, 1595692828198
87, 41401.20, 187500.00, 187500.00, 187500.00, 187500.00, 187500.00, 187500.00, 0.00, 0, 12:00:28.199, 1595692828199
88, 39041.66, 187500.00, 187500.00, 187500.00, 187500.00, 187500.00, 187500.00, 0.00, 0, 12:00:28.205, 1595692828205
89, 39030.05, 187500.00, 187500.00, 187500.00, 187500.00, 187500.00, 187500.00, 0.00, 0, 12:00:28.206, 1595692828206
90, 40239.13, 187500.00, 187500.00, 187500.00, 187500.00, 187500.00, 187500.00, 0.00, 0, 12:00:28.213, 1595692828213
91, 41488.59, 187500.00, 187500.00, 187500.00, 187500.00, 187500.00, 187500.00, 0.00, 0, 12:00:28.214, 1595692828214
92, 39430.58, 187500.00, 187500.00, 187500.00, 187500.00, 187500.00, 187500.00, 0.00, 0, 12:00:28.221, 1595692828221
93, 38824.93, 187500.00, 187500.00, 187500.00, 187500.00, 187500.00, 187500.00, 0.00, 0, 12:00:28.221, 1595692828221
94, 40000.34, 187500.00, 187500.00, 187500.00, 187500.00, 187500.00, 187500.00, 0.00, 0, 12:00:28.229, 1595692828229
95, 41437.43, 187500.00, 187500.00, 187500.00, 187500.00, 187500.00, 187500.00, 0.00, 0, 12:00:28.229, 1595692828229
96, 39897.41, 187500.00, 187500.00, 187500.00, 187500.00, 187500.00, 187500.00, 0.00, 0, 12:00:28.236, 1595692828236
97, 38669.77, 187500.00, 187500.00, 187500.00, 187500.00, 187500.00, 187500.00, 0.00, 0, 12:00:28.236, 1595692828236
98, 39795.13, 187500.00, 187500.00, 187500.00, 187500.00, 187500.00, 187500.00, 0.00, 0, 12:00:28.244, 1595692828244
99, 41267.27, 187500.00, 187500.00, 187500.00, 187500.00, 187500.00, 187500.00, 0.00, 0, 12:00:28.245, 1595692828245
100, 40388.77, 187500.00, 187500.00, 187500.00, 187500.00, 187500.00, 187500.00, 0.00, 0, 12:00:28.251, 1595692828251
101, 38591.22, 187500.00, 187500.00, 187500.00, 187500.00, 187500.00, 187500.00, 0.00, 0, 12:00:28.259, 1595692828259
102, 39611.49, 187500.00, 187500.00, 187500.00, 187500.00, 187500.00, 187500.00, 0.00, 0, 12:00:28.259, 1595692828259
103, 41019.94, 187500.00, 187500.00, 187500.00, 187500.00, 187500.00, 187500.00, 0.00, 0, 12:00:28.265, 1595692828265
104, 40855.03, 187500.00, 187500.00, 187500.00, 187500.00, 187500.00, 187500.00, 0.00, 0, 12:00:28.265, 1595692828265
105, 38640.06, 187500.00, 187500.00, 187500.00, 187500.00, 187500.00, 187500.00, 0.00, 0, 12:00:28.274, 1595692828274
106, 39413.95, 187500.00, 187500.00, 187500.00, 187500.00, 187500.00, 187500.00, 0.00, 0, 12:00:28.274, 1595692828274
107, 40728.14, 187500.00, 187500.00, 187500.00, 187500.00, 187500.00, 187500.00, 0.00, 0, 12:00:28.282, 1595692828282
108, 41203.85, 187500.00, 187500.00, 187500.00, 187500.00, 187500.00, 187500.00, 0.00, 0, 12:00:28.282, 1595692828282
109, 38801.46, 187500.00, 187500.00, 187500.00, 187500.00, 187500.00, 187500.00, 0.00, 0, 12:00:28.288, 1595692828288
110, 39200.20, 187500.00, 187500.00, 187500.00, 187500.00, 187500.00, 187500.00, 0.00, 0, 12:00:28.288, 1595692828288
111, 40441.08, 187500.00, 187500.00, 187500.00, 187500.00, 187500.00, 187500.00, 0.00, 0, 12:00:28.296, 1595692828296
112, 41427.48, 187500.00, 187500.00, 187500.00, 187500.00, 187500.00, 187500.00, 0.00, 0, 12:00:28.296, 1595692828296
113, 39110.39, 187500.00, 187500.00, 187500.00, 187500.00, 187500.00, 187500.00, 0.00, 0, 12:00:28.305, 1595692828305
114, 38987.88, 187500.00, 187500.00, 187500.00, 187500.00, 187500.00, 187500.00, 0.00, 0, 12:00:28.305, 1595692828305
115, 40188.39, 187500.00, 187500.00, 187500.00, 187500.00, 187500.00, 187500.00, 0.00, 0, 12:00:28.312, 1595692828312
116, 41495.01, 187500.00, 187500.00, 187500.00, 187500.00, 187500.00, 187500.00, 0.00, 0, 12:00:28.312, 1595692828312
117, 39527.65, 187500.00, 187500.00, 187500.00, 187500.00, 187500.00, 187500.00, 0.00, 0, 12:00:28.318, 1595692828318
118, 38801.87, 187500.00, 187500.00, 187500.00, 187500.00, 187500.00, 187500.00, 0.00, 0, 12:00:28.326, 1595692828326
119, 39973.25, 187500.00, 187500.00, 187500.00, 187500.00, 187500.00, 187500.00, 0.00, 0, 12:00:28.326, 1595692828326
120, 41423.84, 187500.00, 187500.00, 187500.00, 187500.00, 187500.00, 187500.00, 0.00, 0, 12:00:28.334, 1595692828334
121, 40005.57, 187500.00, 187500.00, 187500.00, 187500.00, 187500.00, 187500.00, 0.00, 0, 12:00:28.334, 1595692828334
122, 38651.46, 187500.00, 187500.00, 187500.00, 187500.00, 187500.00, 187500.00, 0.00, 0, 12:00:28.341, 1595692828341
123, 39761.58, 187500.00, 187500.00, 187500.00, 187500.00, 187500.00, 187500.00, 0.00, 0, 12:00:28.341, 1595692828341
124, 41224.80, 187500.00, 187500.00, 187500.00, 187500.00, 187500.00, 187500.00, 0.00, 0, 12:00:28.348, 1595692828348
125, 40496.38, 187500.00, 187500.00, 187500.00, 187500.00, 187500.00, 187500.00, 0.00, 0, 12:00:28.348, 1595692828348
126, 38597.86, 187500.00, 187500.00, 187500.00, 187500.00, 187500.00, 187500.00, 0.00, 0, 12:00:28.356, 1595692828356
127, 39570.10, 187500.00, 187500.00, 187500.00, 187500.00, 187500.00, 187500.00, 0.00, 0, 12:00:28.357, 1595692828357
128, 40956.96, 187500.00, 187500.00, 187500.00, 187500.00, 187500.00, 187500.00, 0.00, 0, 12:00:28.364, 1595692828364
129, 40934.89, 187500.00, 187500.00, 187500.00, 187500.00, 187500.00, 187500.00, 0.00, 0, 12:00:28.364, 1595692828364
130, 38661.90, 187500.00, 187500.00, 187500.00, 187500.00, 187500.00, 187500.00, 0.00, 0, 12:00:28.371, 1595692828371
131, 39370.90, 187500.00, 187500.00, 187500.00, 187500.00, 187500.00, 187500.00, 0.00, 0, 12:00:28.371, 1595692828371
132, 40669.94, 187500.00, 187500.00, 187500.00, 187500.00, 187500.00, 187500.00, 0.00, 0, 12:00:28.378, 1595692828378
133, 41270.77, 187500.00, 187500.00, 187500.00, 187500.00, 187500.00, 187500.00, 0.00, 0, 12:00:28.386, 1595692828386
134, 38861.25, 187500.00, 187500.00, 187500.00, 187500.00, 187500.00, 187500.00, 0.00, 0, 12:00:28.386, 1595692828386
135, 39157.82, 187500.00, 187500.00, 187500.00, 187500.00, 187500.00, 187500.00, 0.00, 0, 12:00:28.394, 1595692828394
136, 40382.87, 187500.00, 187500.00, 187500.00, 187500.00, 187500.00, 187500.00, 0.00, 0, 12:00:28.394, 1595692828394
137, 41447.31, 187500.00, 187500.00, 187500.00, 187500.00, 187500.00, 187500.00, 0.00, 0, 12:00:28.401, 1595692828401
138, 39186.92, 187500.00, 187500.00, 187500.00, 187500.00, 187500.00, 187500.00, 0.00, 0, 12:00:28.401, 1595692828401
139, 38943.20, 187500.00, 187500.00, 187500.00, 187500.00, 187500.00, 187500.00, 0.00, 0, 12:00:28.409, 1595692828409
140, 40135.08, 187500.00, 187500.00, 187500.00, 187500.00, 187500.00, 187500.00, 0.00, 0, 12:00:28.409, 1595692828409
141, 41484.03, 187500.00, 187500.00, 187500.00, 187500.00, 187500.00, 187500.00, 0.00, 0, 12:00:28.417, 1595692828417
142, 39612.52, 187500.00, 187500.00, 187500.00, 187500.00, 187500.00, 187500.00, 0.00, 0, 12:00:28.417, 1595692828417
143, 38742.39, 187500.00, 187500.00, 187500.00, 187500.00, 187500.00, 187500.00, 0.00, 0, 12:00:28.424, 1595692828424
144, 39899.20, 187500.00, 187500.00, 187500.00, 187500.00, 187500.00, 187500.00, 0.00, 0, 12:00:28.424, 1595692828424
145, 41355.60, 187500.00, 187500.00, 187500.00, 187500.00, 187500.00, 187500.00, 0.00, 0, 12:00:28.431, 1595692828431
146, 40067.82, 187500.00, 187500.00, 187500.00, 187500.00, 187500.00, 187500.00, 0.00, 0, 12:00:28.431, 1595692828431
147, 38583.67, 187500.00, 187500.00, 187500.00, 187500.00, 187500.00, 187500.00, 0.00, 0, 12:00:28.438, 1595692828438
148, 39652.29, 187500.00, 187500.00, 187500.00, 187500.00, 187500.00, 187500.00, 0.00, 0, 12:00:28.446, 1595692828446
149, 41094.26, 187500.00, 187500.00, 187500.00, 187500.00, 187500.00, 187500.00, 0.00, 0, 12:00:28.447, 1595692828447
150, 40498.70, 187500.00, 187500.00, 187500.00, 187500.00, 187500.00, 187500.00, 0.00, 0, 12:00:28.454, 1595692828454
151, 38486.08, 187500.00, 187500.00, 187500.00, 187500.00, 187500.00, 187500.00, 0.00, 0, 12:00:28.454, 1595692828454
152, 39391.95, 187500.00, 187500.00, 187500.00, 187500.00, 187500.00, 187500.00, 0.00, 0, 12:00:28.461, 1595692828461
153, 40755.30, 187500.00, 187500.00, 187500.00, 187500.00, 187500.00, 187500.00, 0.00, 0, 12:00:28.461, 1595692828461
154, 40855.30, 187500.00, 187500.00, 187500.00, 187500.00, 187500.00, 187500.00, 0.00, 0, 12:00:28.469, 1595692828469
155, 38512.66, 187500.00, 187500.00, 187500.00, 187500.00, 187500.00, 187500.00, 0.00, 0, 12:00:28.469, 1595692828469
156, 39140.99, 187500.00, 187500.00, 187500.00, 187500.00, 187500.00, 187500.00, 0.00, 0, 12:00:28.476, 1595692828476
157, 40417.50, 187500.00, 187500.00, 187500.00, 187500.00, 187500.00, 187500.00, 0.00, 0, 12:00:28.476, 1595692828476
158, 41114.02, 187500.00, 187500.00, 187500.00, 187500.00, 187500.00, 187500.00, 0.00, 0, 12:00:28.484, 1595692828484
159, 38705.60, 187500.00, 187500.00, 187500.00, 187500.00, 187500.00, 187500.00, 0.00, 0, 12:00:28.484, 1595692828484
160, 38900.33, 187500.00, 187500.00, 187500.00, 187500.00, 187500.00, 187500.00, 0.00, 0, 12:00:28.491, 1595692828491
161, 40122.74, 187500.00, 187500.00, 187500.00, 187500.00, 187500.00, 187500.00, 0.00, 0, 12:00:28.492, 1595692828492
162, 41247.93, 187500.00, 187500.00, 187500.00, 187500.00, 187500.00, 187500.00, 0.00, 0, 12:00:28.498, 1595692828498
163, 39051.87, 187500.00, 187500.00, 187500.00, 187500.00, 187500.00, 187500.00, 0.00, 0, 12:00:28.506, 1595692828506
164, 38689.66, 187500.00, 187500.00, 187500.00, 187500.00, 187500.00, 187500.00, 0.00, 0, 12:00:28.506, 1595692828506
165, 39884.41, 187500.00, 187500.00, 187500.00, 187500.00, 187500.00, 187500.00, 0.00, 0, 12:00:28.514, 1595692828514
166, 41279.67, 187500.00, 187500.00, 187500.00, 187500.00, 187500.00, 187500.00, 0.00, 0, 12:00:28.514, 1595692828514
167, 39523.87, 187500.00, 187500.00, 187500.00, 187500.00, 187500.00, 187500.00, 0.00, 0, 12:00:28.521, 1595692828521
168, 38543.26, 187500.00, 187500.00, 187500.00, 187500.00, 187500.00, 187500.00, 0.00, 0, 12:00:28.522, 1595692828522
169, 39705.14, 187500.00, 187500.00, 187500.00, 187500.00, 187500.00, 187500.00, 0.00, 0, 12:00:28.529, 1595692828529
170, 41184.29, 187500.00, 187500.00, 187500.00, 187500.00, 187500.00, 187500.00, 0.00, 0, 12:00:28.530, 1595692828530
171, 40047.93, 187500.00, 187500.00, 187500.00, 187500.00, 187500.00, 187500.00, 0.00, 0, 12:00:28.536, 1595692828536
172, 38464.45, 187500.00, 187500.00, 187500.00, 187500.00, 187500.00, 187500.00, 0.00, 0, 12:00:28.536, 1595692828536
173, 39536.43, 187500.00, 187500.00, 187500.00, 187500.00, 187500.00, 187500.00, 0.00, 0, 12:00:28.544, 1595692828544
174, 40981.50, 187500.00, 187500.00, 187500.00, 187500.00, 187500.00, 187500.00, 0.00, 0, 12:00:28.544, 1595692828544
175, 40553.59, 187500.00, 187500.00, 187500.00, 187500.00, 187500.00, 187500.00, 0.00, 0, 12:00:28.552, 1595692828552
176, 38483.09, 187500.00, 187500.00, 187500.00, 187500.00, 187500.00, 187500.00, 0.00, 0, 12:00:28.552, 1595692828552
177, 39369.96, 187500.00, 187500.00, 187500.00, 187500.00, 187500.00, 187500.00, 0.00, 0, 12:00:28.559, 1595692828559
178, 40729.79, 187500.00, 187500.00, 187500.00, 187500.00, 187500.00, 187500.00, 0.00, 0, 12:00:28.560, 1595692828560
179, 40974.95, 187500.00, 187500.00, 187500.00, 187500.00, 187500.00, 187500.00, 0.00, 0, 12:00:28.565, 1595692828565
180, 38618.32, 187500.00, 187500.00, 187500.00, 187500.00, 187500.00, 187500.00, 0.00, 0, 12:00:28.573, 1595692828573
181, 39189.45, 187500.00, 187500.00, 187500.00, 187500.00, 187500.00, 187500.00, 0.00, 0, 12:00:28.574, 1595692828574
182, 40460.59, 187500.00, 187500.00, 187500.00, 187500.00, 187500.00, 187500.00, 0.00, 0, 12:00:28.582, 1595692828582
183, 41271.38, 187500.00, 187500.00, 187500.00, 187500.00, 187500.00, 187500.00, 0.00, 0, 12:00:28.582, 1595692828582
184, 38892.79, 187500.00, 187500.00, 187500.00, 187500.00, 187500.00, 187500.00, 0.00, 0, 12:00:28.589, 1595692828589
185, 38987.83, 187500.00, 187500.00, 187500.00, 187500.00, 187500.00, 187500.00, 0.00, 0, 12:00:28.589, 1595692828589
186, 40210.30, 187500.00, 187500.00, 187500.00, 187500.00, 187500.00, 187500.00, 0.00, 0, 12:00:28.596, 1595692828596
187, 41411.59, 187500.00, 187500.00, 187500.00, 187500.00, 187500.00, 187500.00, 0.00, 0, 12:00:28.596, 1595692828596
188, 39280.29, 187500.00, 187500.00, 187500.00, 187500.00, 187500.00, 187500.00, 0.00, 0, 12:00:28.604, 1595692828604
189, 38803.10, 187500.00, 187500.00, 187500.00, 187500.00, 187500.00, 187500.00, 0.00, 0, 12:00:28.604, 1595692828604
190, 39982.75, 187500.00, 187500.00, 187500.00, 187500.00, 187500.00, 187500.00, 0.00, 0, 12:00:28.611, 1595692828611
191, 41393.84, 187500.00, 187500.00, 187500.00, 187500.00, 187500.00, 187500.00, 0.00, 0, 12:00:28.611, 1595692828611
192, 39747.57, 187500.00, 187500.00, 187500.00, 187500.00, 187500.00, 187500.00, 0.00, 0, 12:00:28.620, 1595692828620
193, 38644.11, 187500.00, 187500.00, 187500.00, 187500.00, 187500.00, 187500.00, 0.00, 0, 12:00:28.620, 1595692828620
194, 39782.82, 187500.00, 187500.00, 187500.00, 187500.00, 187500.00, 187500.00, 0.00, 0, 12:00:28.625, 1595692828625
195, 41253.14, 187500.00, 187500.00, 187500.00, 187500.00, 187500.00, 187500.00, 0.00, 0, 12:00:28.634, 1595692828634
196, 40241.10, 187500.00, 187500.00, 187500.00, 187500.00, 187500.00, 187500.00, 0.00, 0, 12:00:28.634, 1595692828634
197, 38547.84, 187500.00, 187500.00, 187500.00, 187500.00, 187500.00, 187500.00, 0.00, 0, 12:00:28.641, 1595692828641
198, 39593.61, 187500.00, 187500.00, 187500.00, 187500.00, 187500.00, 187500.00, 0.00, 0, 12:00:28.641, 1595692828641
199, 41031.52, 187500.00, 187500.00, 187500.00, 187500.00, 187500.00, 187500.00, 0.00, 0, 12:00:28.648, 1595692828648
200, 40726.57, 187500.00, 187500.00, 187500.00, 187500.00, 187500.00, 187500.00, 0.00, 0, 12:00:28.648, 1595692828648
201, 38579.91, 187500.00, 187500.00, 187500.00, 187500.00, 187500.00, 187500.00, 0.00, 0, 12:00:28.657, 1595692828657
202, 39421.68, 187500.00, 187500.00, 187500.00, 187500.00, 187500.00, 187500.00, 0.00, 0, 12:00:28.658, 1595692828658
203, 40753.06, 187500.00, 187500.00, 187500.00, 187500.00, 187500.00, 187500.00, 0.00, 0, 12:00:28.664, 1595692828664
204, 41115.00, 187500.00, 187500.00, 187500.00, 187500.00, 187500.00, 187500.00, 0.00, 0, 12:00:28.664, 1595692828664
205, 38738.12, 187500.00, 187500.00, 187500.00, 187500.00, 187500.00, 187500.00, 0.00, 0, 12:00:28.671, 1595692828671
206, 39223.87, 187500.00, 187500.00, 187500.00, 187500.00, 187500.00, 187500.00, 0.00, 0, 12:00:28.671, 1595692828671
207, 40477.02, 187500.00, 187500.00, 187500.00, 187500.00, 187500.00, 187500.00, 0.00, 0, 12:00:28.679, 1595692828679
208, 41371.58, 187500.00, 187500.00, 187500.00, 187500.00, 187500.00, 187500.00, 0.00, 0, 12:00:28.679, 1595692828679
209, 39023.55, 187500.00, 187500.00, 187500.00, 187500.00, 187500.00, 187500.00, 0.00, 0, 12:00:28.686, 1595692828686
210, 39011.30, 187500.00, 187500.00, 187500.00, 187500.00, 187500.00, 187500.00, 0.00, 0, 12:00:28.694, 1595692828694
211, 40213.65, 187500.00, 187500.00, 187500.00, 187500.00, 187500.00, 187500.00, 0.00, 0, 12:00:28.694, 1595692828694
212, 41470.26, 187500.00, 187500.00, 187500.00, 187500.00, 187500.00, 187500.00, 0.00, 0, 12:00:28.701, 1595692828701
213, 39416.38, 187500.00, 187500.00, 187500.00, 187500.00, 187500.00, 187500.00, 0.00, 0, 12:00:28.701, 1595692828701
214, 38816.13, 187500.00, 187500.00, 187500.00, 187500.00, 187500.00, 187500.00, 0.00, 0, 12:00:28.708, 1595692828708
215, 39991.09, 187500.00, 187500.00, 187500.00, 187500.00, 187500.00, 187500.00, 0.00, 0, 12:00:28.709, 1595692828709
216, 41420.29, 187500.00, 187500.00, 187500.00, 187500.00, 187500.00, 187500.00, 0.00, 0, 12:00:28.716, 1595692828716
217, 39878.28, 187500.00, 187500.00, 187500.00, 187500.00, 187500.00, 187500.00, 0.00, 0, 12:00:28.717, 1595692828717
218, 38652.16, 187500.00, 187500.00, 187500.00, 187500.00, 187500.00, 187500.00, 0.00, 0, 12:00:28.724, 1595692828724
219, 39782.15, 187500.00, 187500.00, 187500.00, 187500.00, 187500.00, 187500.00, 0.00, 0, 12:00:28.724, 1595692828724
220, 41252.07, 187500.00, 187500.00, 187500.00, 187500.00, 187500.00, 187500.00, 0.00, 0, 12:00:28.731, 1595692828731
221, 40373.38, 187500.00, 187500.00, 187500.00, 187500.00, 187500.00, 187500.00, 0.00, 0, 12:00:28.731, 1595692828731
222, 38573.03, 187500.00, 187500.00, 187500.00, 187500.00, 187500.00, 187500.00, 0.00, 0, 12:00:28.739, 1595692828739
223, 39586.04, 187500.00, 187500.00, 187500.00, 187500.00, 187500.00, 187500.00, 0.00, 0, 12:00:28.739, 1595692828739
224, 40997.01, 187500.00, 187500.00, 187500.00, 187500.00, 187500.00, 187500.00, 0.00, 0, 12:00:28.746, 1595692828746
225, 40825.01, 187500.00, 187500.00, 187500.00, 187500.00, 187500.00, 187500.00, 0.00, 0, 12:00:28.753, 1595692828753
226, 38608.37, 187500.00, 187500.00, 187500.00, 187500.00, 187500.00, 187500.00, 0.00, 0, 12:00:28.753, 1595692828753
227, 39390.16, 187500.00, 187500.00, 187500.00, 187500.00, 187500.00, 187500.00, 0.00, 0, 12:00:28.762, 1595692828762
228, 40706.50, 187500.00, 187500.00, 187500.00, 187500.00, 187500.00, 187500.00, 0.00, 0, 12:00:28.762, 1595692828762
229, 41187.56, 187500.00, 187500.00, 187500.00, 187500.00, 187500.00, 187500.00, 0.00, 0, 12:00:28.769, 1595692828769
230, 38788.93, 187500.00, 187500.00, 187500.00, 187500.00, 187500.00, 187500.00, 0.00, 0, 12:00:28.769, 1595692828769
231, 39186.12, 187500.00, 187500.00, 187500.00, 187500.00, 187500.00, 187500.00, 0.00, 0, 12:00:28.776, 1595692828776
232, 40428.00, 187500.00, 187500.00, 187500.00, 187500.00, 187500.00, 187500.00, 0.00, 0, 12:00:28.777, 1595692828777
233, 41404.35, 187500.00, 187500.00, 187500.00, 187500.00, 187500.00, 187500.00, 0.00, 0, 12:00:28.783, 1595692828783
234, 39089.54, 187500.00, 187500.00, 187500.00, 187500.00, 187500.00, 187500.00, 0.00, 0, 12:00:28.784, 1595692828784
235, 38970.04, 187500.00, 187500.00, 187500.00, 187500.00, 187500.00, 187500.00, 0.00, 0, 12:00:28.791, 1595692828791
236, 40169.41, 187500.00, 187500.00, 187500.00, 187500.00, 187500.00, 187500.00, 0.00, 0, 12:00:28.792, 1595692828792
237, 41469.77, 187500.00, 187500.00, 187500.00, 187500.00, 187500.00, 187500.00, 0.00, 0, 12:00:28.799, 1595692828799
238, 39500.09, 187500.00, 187500.00, 187500.00, 187500.00, 187500.00, 187500.00, 0.00, 0, 12:00:28.800, 1595692828800
239, 38769.86, 187500.00, 187500.00, 187500.00, 187500.00, 187500.00, 187500.00, 0.00, 0, 12:00:28.806, 1595692828806
240, 39940.15, 187500.00, 187500.00, 187500.00, 187500.00, 187500.00, 187500.00, 0.00, 0, 12:00:28.806, 1595692828806
241, 41397.13, 187500.00, 187500.00, 187500.00, 187500.00, 187500.00, 187500.00, 0.00, 0, 12:00:28.813, 1595692828813
242, 39979.45, 187500.00, 187500.00, 187500.00, 187500.00, 187500.00, 187500.00, 0.00, 0, 12:00:28.821, 1595692828821
243, 38631.95, 187500.00, 187500.00, 187500.00, 187500.00, 187500.00, 187500.00, 0.00, 0, 12:00:28.821, 1595692828821
244, 39744.48, 187500.00, 187500.00, 187500.00, 187500.00, 187500.00, 187500.00, 0.00, 0, 12:00:28.829, 1595692828829
245, 41204.61, 187500.00, 187500.00, 187500.00, 187500.00, 187500.00, 187500.00, 0.00, 0, 12:00:28.830, 1595692828830
246, 40465.26, 187500.00, 187500.00, 187500.00, 187500.00, 187500.00, 187500.00, 0.00, 0, 12:00:28.836, 1595692828836
247, 38571.84, 187500.00, 187500.00, 187500.00, 187500.00, 187500.00, 187500.00, 0.00, 0, 12:00:28.836, 1595692828836
248, 39550.20, 187500.00, 187500.00, 187500.00, 187500.00, 187500.00, 187500.00, 0.00, 0, 12:00:28.844, 1595692828844
249, 40943.14, 187500.00, 187500.00, 187500.00, 187500.00, 187500.00, 187500.00, 0.00, 0, 12:00:28.844, 1595692828844
250, 40905.05, 187500.00, 187500.00, 187500.00, 187500.00, 187500.00, 187500.00, 0.00, 0, 12:00:28.852, 1595692828852
251, 38630.88, 187500.00, 187500.00, 187500.00, 187500.00, 187500.00, 187500.00, 0.00, 0, 12:00:28.852, 1595692828852
252, 39340.28, 187500.00, 187500.00, 187500.00, 187500.00, 187500.00, 187500.00, 0.00, 0, 12:00:28.859, 1595692828859
253, 40641.80, 187500.00, 187500.00, 187500.00, 187500.00, 187500.00, 187500.00, 0.00, 0, 12:00:28.859, 1595692828859
254, 41230.90, 187500.00, 187500.00, 187500.00, 187500.00, 187500.00, 187500.00, 0.00, 0, 12:00:28.867, 1595692828867
255, 38827.68, 187500.00, 187500.00, 187500.00, 187500.00, 187500.00, 187500.00, 0.00, 0, 12:00:28.867, 1595692828867
0, 39131.60, 187500.00, 187500.00, 187500.00, 187500.00, 187500.00, 187500.00, 0.00, 0, 12:00:28.873, 1595692828873
1, 40368.57, 187500.00, 187500.00, 187500.00, 187500.00, 187500.00, 187500.00, 0.00, 0, 12:00:28.881, 1595692828881
2, 41421.71, 187500.00, 187500.00, 187500.00, 187500.00, 187500.00, 187500.00, 0.00, 0, 12:00:28.882, 1595692828882
3, 39143.34, 187500.00, 187500.00, 187500.00, 187500.00, 187500.00, 187500.00, 0.00, 0, 12:00:28.888, 1595692828888
4, 38915.19, 187500.00, 187500.00, 187500.00, 187500.00, 187500.00, 187500.00, 0.00, 0, 12:00:28.888, 1595692828888
5, 40114.59, 187500.00, 187500.00, 187500.00, 187500.00, 187500.00, 187500.00, 0.00, 0, 12:00:28.896, 1595692828896
6, 41462.13, 187500.00, 187500.00, 187500.00, 187500.00, 187500.00, 187500.00, 0.00, 0, 12:00:28.897, 1595692828897
7, 39584.65, 187500.00, 187500.00, 187500.00, 187500.00, 187500.00, 187500.00, 0.00, 0, 12:00:28.904, 1595692828904
8, 38739.02, 187500.00, 187500.00, 187500.00, 187500.00, 187500.00, 187500.00, 0.00, 0, 12:00:28.904, 1595692828904
9, 39904.50, 187500.00, 187500.00, 187500.00, 187500.00, 187500.00, 187500.00, 0.00, 0, 12:00:28.911, 1595692828911
10, 41365.59, 187500.00, 187500.00, 187500.00, 187500.00, 187500.00, 187500.00, 0.00, 0, 12:00:28.911, 1595692828911
11, 40066.89, 187500.00, 187500.00, 187500.00, 187500.00, 187500.00, 187500.00, 0.00, 0, 12:00:28.919, 1595692828919
12, 38605.39, 187500.00, 187500.00, 187500.00, 187500.00, 187500.00, 187500.00, 0.00, 0, 12:00:28.919, 1595692828919
13, 39675.93, 187500.00, 187500.00, 187500.00, 187500.00, 187500.00, 187500.00, 0.00, 0, 12:00:28.927, 1595692828927
14, 41124.35, 187500.00, 187500.00, 187500.00, 187500.00, 187500.00, 187500.00, 0.00, 0, 12:00:28.927, 1595692828927
15, 40523.73, 187500.00, 187500.00, 187500.00, 187500.00, 187500.00, 187500.00, 0.00, 0, 12:00:28.935, 1595692828935
16, 38553.88, 187500.00, 187500.00, 187500.00, 187500.00, 187500.00, 187500.00, 0.00, 0, 12:00:28.941, 1595692828941
17, 39491.44, 187500.00, 187500.00, 187500.00, 187500.00, 187500.00, 187500.00, 0.00, 0, 12:00:28.941, 1595692828941
18, 40865.65, 187500.00, 187500.00, 187500.00, 187500.00, 187500.00, 187500.00, 0.00, 0, 12:00:28.948, 1595692828948
19, 40960.33, 187500.00, 187500.00, 187500.00, 187500.00, 187500.00, 187500.00, 0.00, 0, 12:00:28.948, 1595692828948
20, 38651.21, 187500.00, 187500.00, 187500.00, 187500.00, 187500.00, 187500.00, 0.00, 0, 12:00:28.956, 1595692828956
21, 39304.09, 187500.00, 187500.00, 187500.00, 187500.00, 187500.00, 187500.00, 0.00, 0, 12:00:28.957, 1595692828957
22, 40586.25, 187500.00, 187500.00, 187500.00, 187500.00, 187500.00, 187500.00, 0.00, 0, 12:00:28.964, 1595692828964
23, 41274.93, 187500.00, 187500.00, 187500.00, 187500.00, 187500.00, 187500.00, 0.00, 0, 12:00:28.965, 1595692828965
24, 38883.81, 187500.00, 187500.00, 187500.00, 187500.00, 187500.00, 187500.00, 0.00, 0, 12:00:28.971, 1595692828971
25, 39098.14, 187500.00, 187500.00, 187500.00, 187500.00, 187500.00, 187500.00, 0.00, 0, 12:00:28.972, 1595692828972
26, 40326.55, 187500.00, 187500.00, 187500.00, 187500.00, 187500.00, 187500.00, 0.00, 0, 12:00:28.979, 1595692828979
27, 41455.73, 187500.00, 187500.00, 187500.00, 187500.00, 187500.00, 187500.00, 0.00, 0, 12:00:28.979, 1595692828979
28, 39244.70, 187500.00, 187500.00, 187500.00, 187500.00, 187500.00, 187500.00, 0.00, 0, 12:00:28.987, 1595692828987
29, 38895.77, 187500.00, 187500.00, 187500.00, 187500.00, 187500.00, 187500.00, 0.00, 0, 12:00:28.987, 1595692828987
30, 40082.22, 187500.00, 187500.00, 187500.00, 187500.00, 187500.00, 187500.00, 0.00, 0, 12:00:28.994, 1595692828994
31, 41460.05, 187500.00, 187500.00, 187500.00, 187500.00, 187500.00, 187500.00, 0.00, 0, 12:00:29.001, 1595692829001
32, 39677.83, 187500.00, 187500.00, 187500.00, 187500.00, 187500.00, 187500.00, 0.00, 0, 12:00:29.001, 1595692829001
33, 38711.90, 187500.00, 187500.00, 187500.00, 187500.00, 187500.00, 187500.00, 0.00, 0, 12:00:29.010, 1595692829010
34, 39867.15, 187500.00, 187500.00, 187500.00, 187500.00, 187500.00, 187500.00, 0.00, 0, 12:00:29.010, 1595692829010
35, 41341.83, 187500.00, 187500.00, 187500.00, 187500.00, 187500.00, 187500.00, 0.00, 0, 12:00:29.017, 1595692829017
36, 40177.66, 187500.00, 187500.00, 187500.00, 187500.00, 187500.00, 187500.00, 0.00, 0, 12:00:29.017, 1595692829017
37, 38609.69, 187500.00, 187500.00, 187500.00, 187500.00, 187500.00, 187500.00, 0.00, 0, 12:00:29.023, 1595692829023
38, 39680.40, 187500.00, 187500.00, 187500.00, 187500.00, 187500.00, 187500.00, 0.00, 0, 12:00:29.023, 1595692829023
39, 41123.03, 187500.00, 187500.00, 187500.00, 187500.00, 187500.00, 187500.00, 0.00, 0, 12:00:29.031, 1595692829031
40, 40652.50, 187500.00, 187500.00, 187500.00, 187500.00, 187500.00, 187500.00, 0.00, 0, 12:00:29.031, 1595692829031
41, 38583.31, 187500.00, 187500.00, 187500.00, 187500.00, 187500.00, 187500.00, 0.00, 0, 12:00:29.039, 1595692829039
42, 39481.70, 187500.00, 187500.00, 187500.00, 187500.00, 187500.00, 187500.00, 0.00, 0, 12:00:29.040, 1595692829040
43, 40841.57, 187500.00, 187500.00, 187500.00, 187500.00, 187500.00, 187500.00, 0.00, 0, 12:00:29.046, 1595692829046
44, 41057.96, 187500.00, 187500.00, 187500.00, 187500.00, 187500.00, 187500.00, 0.00, 0, 12:00:29.047, 1595692829047
45, 38699.36, 187500.00, 187500.00, 187500.00, 187500.00, 187500.00, 187500.00, 0.00, 0, 12:00:29.053, 1595692829053
46, 39280.04, 187500.00, 187500.00, 187500.00, 187500.00, 187500.00, 187500.00, 0.00, 0, 12:00:29.053, 1595692829053
47, 40549.44, 187500.00, 187500.00, 187500.00, 187500.00, 187500.00, 187500.00, 0.00, 0, 12:00:29.061, 1595692829061
48, 41339.33, 187500.00, 187500.00, 187500.00, 187500.00, 187500.00, 187500.00, 0.00, 0, 12:00:29.069, 1595692829069
49, 38951.33, 187500.00, 187500.00, 187500.00, 187500.00, 187500.00, 187500.00, 0.00, 0, 12:00:29.069, 1595692829069
50, 39064.30, 187500.00, 187500.00, 187500.00, 187500.00, 187500.00, 187500.00, 0.00, 0, 12:00:29.076, 1595692829076
51, 40286.07, 187500.00, 187500.00, 187500.00, 187500.00, 187500.00, 187500.00, 0.00, 0, 12:00:29.077, 1595692829077
52, 41470.15, 187500.00, 187500.00, 187500.00, 187500.00, 187500.00, 187500.00, 0.00, 0, 12:00:29.083, 1595692829083
53, 39321.21, 187500.00, 187500.00, 187500.00, 187500.00, 187500.00, 187500.00, 0.00, 0, 12:00:29.084, 1595692829084
54, 38859.29, 187500.00, 187500.00, 187500.00, 187500.00, 187500.00, 187500.00, 0.00, 0, 12:00:29.092, 1595692829092
55, 40041.96, 187500.00, 187500.00, 187500.00, 187500.00, 187500.00, 187500.00, 0.00, 0, 12:00:29.092, 1595692829092
56, 41449.99, 187500.00, 187500.00, 187500.00, 187500.00, 187500.00, 187500.00, 0.00, 0, 12:00:29.100, 1595692829100
57, 39779.44, 187500.00, 187500.00, 187500.00, 187500.00, 187500.00, 187500.00, 0.00, 0, 12:00:29.100, 1595692829100
58, 38696.14, 187500.00, 187500.00, 187500.00, 187500.00, 187500.00, 187500.00, 0.00, 0, 12:00:29.106, 1595692829106
59, 39835.66, 187500.00, 187500.00, 187500.00, 187500.00, 187500.00, 187500.00, 0.00, 0, 12:00:29.106, 1595692829106
60, 41308.46, 187500.00, 187500.00, 187500.00, 187500.00, 187500.00, 187500.00, 0.00, 0, 12:00:29.114, 1595692829114
61, 40265.70, 187500.00, 187500.00, 187500.00, 187500.00, 187500.00, 187500.00, 0.00, 0, 12:00:29.114, 1595692829114
62, 38589.70, 187500.00, 187500.00, 187500.00, 187500.00, 187500.00, 187500.00, 0.00, 0, 12:00:29.121, 1595692829121
63, 39638.74, 187500.00, 187500.00, 187500.00, 187500.00, 187500.00, 187500.00, 0.00, 0, 12:00:29.129, 1595692829129
64, 41073.79, 187500.00, 187500.00, 187500.00, 187500.00, 187500.00, 187500.00, 0.00, 0, 12:00:29.130, 1595692829130
65, 40741.55, 187500.00, 187500.00, 187500.00, 187500.00, 187500.00, 187500.00, 0.00, 0, 12:00:29.136, 1595692829136
66, 38603.38, 187500.00, 187500.00, 187500.00, 187500.00, 187500.00, 187500.00, 0.00, 0, 12:00:29.136, 1595692829136
67, 39450.52, 187500.00, 187500.00, 187500.00, 187500.00, 187500.00, 187500.00, 0.00, 0, 12:00:29.145, 1595692829145
68, 40787.06, 187500.00, 187500.00, 187500.00, 187500.00, 187500.00, 187500.00, 0.00, 0, 12:00:29.146, 1595692829146
69, 41123.07, 187500.00, 187500.00, 187500.00, 187500.00, 187500.00, 187500.00, 0.00, 0, 12:00:29.152, 1595692829152
70, 38737.49, 187500.00, 187500.00, 187500.00, 187500.00, 187500.00, 187500.00, 0.00, 0, 12:00:29.152, 1595692829152
71, 39238.84, 187500.00, 187500.00, 187500.00, 187500.00, 187500.00, 187500.00, 0.00, 0, 12:00:29.158, 1595692829158
72, 40503.91, 187500.00, 187500.00, 187500.00, 187500.00, 187500.00, 187500.00, 0.00, 0, 12:00:29.159, 1595692829159
73, 41381.73, 187500.00, 187500.00, 187500.00, 187500.00, 187500.00, 187500.00, 0.00, 0, 12:00:29.166, 1595692829166
74, 39018.46, 187500.00, 187500.00, 187500.00, 187500.00, 187500.00, 187500.00, 0.00, 0, 12:00:29.167, 1595692829167
75, 39034.32, 187500.00, 187500.00, 187500.00, 187500.00, 187500.00, 187500.00, 0.00, 0, 12:00:29.175, 1595692829175
76, 40247.89, 187500.00, 187500.00, 187500.00, 187500.00, 187500.00, 187500.00, 0.00, 0, 12:00:29.175, 1595692829175
77, 41492.44, 187500.00, 187500.00, 187500.00, 187500.00, 187500.00, 187500.00, 0.00, 0, 12:00:29.182, 1595692829182
78, 39413.70, 187500.00, 187500.00, 187500.00, 187500.00, 187500.00, 187500.00, 0.00, 0, 12:00:29.188, 1595692829188
79, 38832.31, 187500.00, 187500.00, 187500.00, 187500.00, 187500.00, 187500.00, 0.00, 0, 12:00:29.188, 1595692829188
80, 40011.16, 187500.00, 187500.00, 187500.00, 187500.00, 187500.00, 187500.00, 0.00, 0, 12:00:29.196, 1595692829196
81, 41444.69, 187500.00, 187500.00, 187500.00, 187500.00, 187500.00, 187500.00, 0.00, 0, 12:00:29.196, 1595692829196
82, 39873.92, 187500.00, 187500.00, 187500.00, 187500.00, 187500.00, 187500.00, 0.00, 0, 12:00:29.204, 1595692829204
83, 38673.23, 187500.00, 187500.00, 187500.00, 187500.00, 187500.00, 187500.00, 0.00, 0, 12:00:29.204, 1595692829204
84, 39805.57, 187500.00, 187500.00, 187500.00, 187500.00, 187500.00, 187500.00, 0.00, 0, 12:00:29.212, 1595692829212
85, 41273.86, 187500.00, 187500.00, 187500.00, 187500.00, 187500.00, 187500.00, 0.00, 0, 12:00:29.212, 1595692829212
86, 40361.59, 187500.00, 187500.00, 187500.00, 187500.00, 187500.00, 187500.00, 0.00, 0, 12:00:29.219, 1595692829219
87, 38590.29, 187500.00, 187500.00, 187500.00, 187500.00, 187500.00, 187500.00, 0.00, 0, 12:00:29.219, 1595692829219
88, 39606.44, 187500.00, 187500.00, 187500.00, 187500.00, 187500.00, 187500.00, 0.00, 0, 12:00:29.227, 1595692829227
89, 41017.86, 187500.00, 187500.00, 187500.00, 187500.00, 187500.00, 187500.00, 0.00, 0, 12:00:29.227, 1595692829227
90, 40812.85, 187500.00, 187500.00, 187500.00, 187500.00, 187500.00, 187500.00, 0.00, 0, 12:00:29.235, 1595692829235
91, 38614.07, 187500.00, 187500.00, 187500.00, 187500.00, 187500.00, 187500.00, 0.00, 0, 12:00:29.235, 1595692829235
92, 39406.44, 187500.00, 187500.00, 187500.00, 187500.00, 187500.00, 187500.00, 0.00, 0, 12:00:29.241, 1595692829241
93, 40728.36, 187500.00, 187500.00, 187500.00, 187500.00, 187500.00, 187500.00, 0.00, 0, 12:00:29.248, 1595692829248
94, 41180.99, 187500.00, 187500.00, 187500.00, 187500.00, 187500.00, 187500.00, 0.00, 0, 12:00:29.248, 1595692829248
95, 38783.81, 187500.00, 187500.00, 187500.00, 187500.00, 187500.00, 187500.00, 0.00, 0, 12:00:29.257, 1595692829257
96, 39206.59, 187500.00, 187500.00, 187500.00, 187500.00, 187500.00, 187500.00, 0.00, 0, 12:00:29.258, 1595692829258
97, 40458.45, 187500.00, 187500.00, 187500.00, 187500.00, 187500.00, 187500.00, 0.00, 0, 12:00:29.265, 1595692829265
98, 41417.87, 187500.00, 187500.00, 187500.00, 187500.00, 187500.00, 187500.00, 0.00, 0, 12:00:29.265, 1595692829265
99, 39088.59, 187500.00, 187500.00, 187500.00, 187500.00, 187500.00, 187500.00, 0.00, 0, 12:00:29.271, 1595692829271
100, 38994.85, 187500.00, 187500.00, 187500.00, 187500.00, 187500.00, 187500.00, 0.00, 0, 12:00:29.271, 1595692829271
101, 40199.93, 187500.00, 187500.00, 187500.00, 187500.00, 187500.00, 187500.00, 0.00, 0, 12:00:29.279, 1595692829279
102, 41491.61, 187500.00, 187500.00, 187500.00, 187500.00, 187500.00, 187500.00, 0.00, 0, 12:00:29.279, 1595692829279
103, 39491.22, 187500.00, 187500.00, 187500.00, 187500.00, 187500.00, 187500.00, 0.00, 0, 12:00:29.289, 1595692829289
104, 38801.64, 187500.00, 187500.00, 187500.00, 187500.00, 187500.00, 187500.00, 0.00, 0, 12:00:29.290, 1595692829290
105, 39974.35, 187500.00, 187500.00, 187500.00, 187500.00, 187500.00, 187500.00, 0.00, 0, 12:00:29.294, 1595692829294
106, 41426.74, 187500.00, 187500.00, 187500.00, 187500.00, 187500.00, 187500.00, 0.00, 0, 12:00:29.294, 1595692829294
107, 39975.47, 187500.00, 187500.00, 187500.00, 187500.00, 187500.00, 187500.00, 0.00, 0, 12:00:29.301, 1595692829301
108, 38661.43, 187500.00, 187500.00, 187500.00, 187500.00, 187500.00, 187500.00, 0.00, 0, 12:00:29.301, 1595692829301
109, 39782.37, 187500.00, 187500.00, 187500.00, 187500.00, 187500.00, 187500.00, 0.00, 0, 12:00:29.309, 1595692829309
110, 41248.24, 187500.00, 187500.00, 187500.00, 187500.00, 187500.00, 187500.00, 0.00, 0, 12:00:29.317, 1595692829317
111, 40466.56, 187500.00, 187500.00, 187500.00, 187500.00, 187500.00, 187500.00, 0.00, 0, 12:00:29.317, 1595692829317
112, 38599.25, 187500.00, 187500.00, 187500.00, 187500.00, 187500.00, 187500.00, 0.00, 0, 12:00:29.324, 1595692829324
113, 39588.94, 187500.00, 187500.00, 187500.00, 187500.00, 187500.00, 187500.00, 0.00, 0, 12:00:29.324, 1595692829324
114, 40983.84, 187500.00, 187500.00, 187500.00, 187500.00, 187500.00, 187500.00, 0.00, 0, 12:00:29.331, 1595692829331
115, 40910.11, 187500.00, 187500.00, 187500.00, 187500.00, 187500.00, 187500.00, 0.00, 0, 12:00:29.331, 1595692829331
116, 38649.20, 187500.00, 187500.00, 187500.00, 187500.00, 187500.00, 187500.00, 0.00, 0, 12:00:29.339, 1595692829339
117, 39387.84, 187500.00, 187500.00, 187500.00, 187500.00, 187500.00, 187500.00, 0.00, 0, 12:00:29.339, 1595692829339
118, 40693.16, 187500.00, 187500.00, 187500.00, 187500.00, 187500.00, 187500.00, 0.00, 0, 12:00:29.346, 1595692829346
119, 41245.88, 187500.00, 187500.00, 187500.00, 187500.00, 187500.00, 187500.00, 0.00, 0, 12:00:29.346, 1595692829346
120, 38826.86, 187500.00, 187500.00, 187500.00, 187500.00, 187500.00, 187500.00, 0.00, 0, 12:00:29.356, 1595692829356
121, 39159.63, 187500.00, 187500.00, 187500.00, 187500.00, 187500.00, 187500.00, 0.00, 0, 12:00:29.357, 1595692829357
122, 40395.39, 187500.00, 187500.00, 187500.00, 187500.00, 187500.00, 187500.00, 0.00, 0, 12:00:29.362, 1595692829362
123, 41432.73, 187500.00, 187500.00, 187500.00, 187500.00, 187500.00, 187500.00, 0.00, 0, 12:00:29.362, 1595692829362
124, 39152.54, 187500.00, 187500.00, 187500.00, 187500.00, 187500.00, 187500.00, 0.00, 0, 12:00:29.369, 1595692829369
125, 38957.28, 187500.00, 187500.00, 187500.00, 187500.00, 187500.00, 187500.00, 0.00, 0, 12:00:29.376, 1595692829376
126, 40156.81, 187500.00, 187500.00, 187500.00, 187500.00, 187500.00, 187500.00, 0.00, 0, 12:00:29.376, 1595692829376
127, 41492.77, 187500.00, 187500.00, 187500.00, 187500.00, 187500.00, 187500.00, 0.00, 0, 12:00:29.383, 1595692829383
128, 39582.01, 187500.00, 187500.00, 187500.00, 187500.00, 187500.00, 187500.00, 0.00, 0, 12:00:29.384, 1595692829384
129, 38767.33, 187500.00, 187500.00, 187500.00, 187500.00, 187500.00, 187500.00, 0.00, 0, 12:00:29.392, 1595692829392
130, 39932.87, 187500.00, 187500.00, 187500.00, 187500.00, 187500.00, 187500.00, 0.00, 0, 12:00:29.392, 1595692829392
131, 41396.70, 187500.00, 187500.00, 187500.00, 187500.00, 187500.00, 187500.00, 0.00, 0, 12:00:29.400, 1595692829400
132, 40061.39, 187500.00, 187500.00, 187500.00, 187500.00, 187500.00, 187500.00, 0.00, 0, 12:00:29.400, 1595692829400
133, 38633.36, 187500.00, 187500.00, 187500.00, 187500.00, 187500.00, 187500.00, 0.00, 0, 12:00:29.406, 1595692829406
134, 39735.81, 187500.00, 187500.00, 187500.00, 187500.00, 187500.00, 187500.00, 0.00, 0, 12:00:29.406, 1595692829406
135, 41192.50, 187500.00, 187500.00, 187500.00, 187500.00, 187500.00, 187500.00, 0.00, 0, 12:00:29.414, 1595692829414
136, 40543.38, 187500.00, 187500.00, 187500.00, 187500.00, 187500.00, 187500.00, 0.00, 0, 12:00:29.414, 1595692829414
137, 38585.68, 187500.00, 187500.00, 187500.00, 187500.00, 187500.00, 187500.00, 0.00, 0, 12:00:29.422, 1595692829422
138, 39532.10, 187500.00, 187500.00, 187500.00, 187500.00, 187500.00, 187500.00, 0.00, 0, 12:00:29.422, 1595692829422
139, 40914.46, 187500.00, 187500.00, 187500.00, 187500.00, 187500.00, 187500.00, 0.00, 0, 12:00:29.432, 1595692829432
140, 40973.72, 187500.00, 187500.00, 187500.00, 187500.00, 187500.00, 187500.00, 0.00, 0, 12:00:29.437, 1595692829437
141, 38669.84, 187500.00, 187500.00, 187500.00, 187500.00, 187500.00, 187500.00, 0.00, 0, 12:00:29.438, 1595692829438
142, 39341.59, 187500.00, 187500.00, 187500.00, 187500.00, 187500.00, 187500.00, 0.00, 0, 12:00:29.444, 1595692829444
143, 40633.28, 187500.00, 187500.00, 187500.00, 187500.00, 187500.00, 187500.00, 0.00, 0, 12:00:29.444, 1595692829444
144, 41295.85, 187500.00, 187500.00, 187500.00, 187500.00, 187500.00, 187500.00, 0.00, 0, 12:00:29.452, 1595692829452
145, 38892.66, 187500.00, 187500.00, 187500.00, 187500.00, 187500.00, 187500.00, 0.00, 0, 12:00:29.452, 1595692829452
146, 39132.83, 187500.00, 187500.00, 187500.00, 187500.00, 187500.00, 187500.00, 0.00, 0, 12:00:29.459, 1595692829459
147, 40358.40, 187500.00, 187500.00, 187500.00, 187500.00, 187500.00, 187500.00, 0.00, 0, 12:00:29.459, 1595692829459
148, 41461.70, 187500.00, 187500.00, 187500.00, 187500.00, 187500.00, 187500.00, 0.00, 0, 12:00:29.467, 1595692829467
149, 39227.85, 187500.00, 187500.00, 187500.00, 187500.00, 187500.00, 187500.00, 0.00, 0, 12:00:29.467, 1595692829467
150, 38913.16, 187500.00, 187500.00, 187500.00, 187500.00, 187500.00, 187500.00, 0.00, 0, 12:00:29.475, 1595692829475
151, 40103.95, 187500.00, 187500.00, 187500.00, 187500.00, 187500.00, 187500.00, 0.00, 0, 12:00:29.475, 1595692829475
152, 41474.73, 187500.00, 187500.00, 187500.00, 187500.00, 187500.00, 187500.00, 0.00, 0, 12:00:29.482, 1595692829482
153, 39668.62, 187500.00, 187500.00, 187500.00, 187500.00, 187500.00, 187500.00, 0.00, 0, 12:00:29.482, 1595692829482
154, 38740.27, 187500.00, 187500.00, 187500.00, 187500.00, 187500.00, 187500.00, 0.00, 0, 12:00:29.488, 1595692829488
155, 39893.53, 187500.00, 187500.00, 187500.00, 187500.00, 187500.00, 187500.00, 0.00, 0, 12:00:29.496, 1595692829496
156, 41366.19, 187500.00, 187500.00, 187500.00, 187500.00, 187500.00, 187500.00, 0.00, 0, 12:00:29.496, 1595692829496
157, 40157.63, 187500.00, 187500.00, 187500.00, 187500.00, 187500.00, 187500.00, 0.00, 0, 12:00:29.504, 1595692829504
158, 38616.06, 187500.00, 187500.00, 187500.00, 187500.00, 187500.00, 187500.00, 0.00, 0, 12:00:29.505, 1595692829505
159, 39690.64, 187500.00, 187500.00, 187500.00, 187500.00, 187500.00, 187500.00, 0.00, 0, 12:00:29.511, 1595692829511
160, 41137.40, 187500.00, 187500.00, 187500.00, 187500.00, 187500.00, 187500.00, 0.00, 0, 12:00:29.511, 1595692829511
161, 40629.34, 187500.00, 187500.00, 187500.00, 187500.00, 187500.00, 187500.00, 0.00, 0, 12:00:29.519, 1595692829519
162, 38596.54, 187500.00, 187500.00, 187500.00, 187500.00, 187500.00, 187500.00, 0.00, 0, 12:00:29.519, 1595692829519
163, 39505.43, 187500.00, 187500.00, 187500.00, 187500.00, 187500.00, 187500.00, 0.00, 0, 12:00:29.527, 1595692829527
164, 40866.23, 187500.00, 187500.00, 187500.00, 187500.00, 187500.00, 187500.00, 0.00, 0, 12:00:29.527, 1595692829527
165, 41047.21, 187500.00, 187500.00, 187500.00, 187500.00, 187500.00, 187500.00, 0.00, 0, 12:00:29.535, 1595692829535
166, 38700.61, 187500.00, 187500.00, 187500.00, 187500.00, 187500.00, 187500.00, 0.00, 0, 12:00:29.535, 1595692829535
167, 39300.80, 187500.00, 187500.00, 187500.00, 187500.00, 187500.00, 187500.00, 0.00, 0, 12:00:29.541, 1595692829541
168, 40578.81, 187500.00, 187500.00, 187500.00, 187500.00, 187500.00, 187500.00, 0.00, 0, 12:00:29.542, 1595692829542
169, 41335.84, 187500.00, 187500.00, 187500.00, 187500.00, 187500.00, 187500.00, 0.00, 0, 12:00:29.548, 1595692829548
170, 38936.47, 187500.00, 187500.00, 187500.00, 187500.00, 187500.00, 187500.00, 0.00, 0, 12:00:29.548, 1595692829548
171, 39078.92, 187500.00, 187500.00, 187500.00, 187500.00, 187500.00, 187500.00, 0.00, 0, 12:00:29.556, 1595692829556
172, 40303.19, 187500.00, 187500.00, 187500.00, 187500.00, 187500.00, 187500.00, 0.00, 0, 12:00:29.565, 1595692829565
173, 41475.40, 187500.00, 187500.00, 187500.00, 187500.00, 187500.00, 187500.00, 0.00, 0, 12:00:29.565, 1595692829565
174, 39305.95, 187500.00, 187500.00, 187500.00, 187500.00, 187500.00, 187500.00, 0.00, 0, 12:00:29.571, 1595692829571
175, 38878.73, 187500.00, 187500.00, 187500.00, 187500.00, 187500.00, 187500.00, 0.00, 0, 12:00:29.572, 1595692829572
176, 40067.80, 187500.00, 187500.00, 187500.00, 187500.00, 187500.00, 187500.00, 0.00, 0, 12:00:29.579, 1595692829579
177, 41471.94, 187500.00, 187500.00, 187500.00, 187500.00, 187500.00, 187500.00, 0.00, 0, 12:00:29.579, 1595692829579
178, 39759.50, 187500.00, 187500.00, 187500.00, 187500.00, 187500.00, 187500.00, 0.00, 0, 12:00:29.587, 1595692829587
179, 38703.41, 187500.00, 187500.00, 187500.00, 187500.00, 187500.00, 187500.00, 0.00, 0, 12:00:29.587, 1595692829587
180, 39851.64, 187500.00, 187500.00, 187500.00, 187500.00, 187500.00, 187500.00, 0.00, 0, 12:00:29.594, 1595692829594
181, 41329.92, 187500.00, 187500.00, 187500.00, 187500.00, 187500.00, 187500.00, 0.00, 0, 12:00:29.594, 1595692829594
182, 40252.65, 187500.00, 187500.00, 187500.00, 187500.00, 187500.00, 187500.00, 0.00, 0, 12:00:29.602, 1595692829602
183, 38603.68, 187500.00, 187500.00, 187500.00, 187500.00, 187500.00, 187500.00, 0.00, 0, 12:00:29.602, 1595692829602
184, 39658.45, 187500.00, 187500.00, 187500.00, 187500.00, 187500.00, 187500.00, 0.00, 0, 12:00:29.610, 1595692829610
185, 41096.43, 187500.00, 187500.00, 187500.00, 187500.00, 187500.00, 187500.00, 0.00, 0, 12:00:29.610, 1595692829610
186, 40726.64, 187500.00, 187500.00, 187500.00, 187500.00, 187500.00, 187500.00, 0.00, 0, 12:00:29.617, 1595692829617
187, 38607.14, 187500.00, 187500.00, 187500.00, 187500.00, 187500.00, 187500.00, 0.00, 0, 12:00:29.623, 1595692829623
188, 39463.52, 187500.00, 187500.00, 187500.00, 187500.00, 187500.00, 187500.00, 0.00, 0, 12:00:29.623, 1595692829623
189, 40806.42, 187500.00, 187500.00, 187500.00, 187500.00, 187500.00, 187500.00, 0.00, 0, 12:00:29.633, 1595692829633
190, 41110.20, 187500.00, 187500.00, 187500.00, 187500.00, 187500.00, 187500.00, 0.00, 0, 12:00:29.633, 1595692829633
191, 38733.07, 187500.00, 187500.00, 187500.00, 187500.00, 187500.00, 187500.00, 0.00, 0, 12:00:29.640, 1595692829640
192, 39251.81, 187500.00, 187500.00, 187500.00, 187500.00, 187500.00, 187500.00, 0.00, 0, 12:00:29.640, 1595692829640
193, 40511.29, 187500.00, 187500.00, 187500.00, 187500.00, 187500.00, 187500.00, 0.00, 0, 12:00:29.647, 1595692829647
194, 41369.97, 187500.00, 187500.00, 187500.00, 187500.00, 187500.00, 187500.00, 0.00, 0, 12:00:29.647, 1595692829647
195, 39001.73, 187500.00, 187500.00, 187500.00, 187500.00, 187500.00, 187500.00, 0.00, 0, 12:00:29.654, 1595692829654
196, 39031.46, 187500.00, 187500.00, 187500.00, 187500.00, 187500.00, 187500.00, 0.00, 0, 12:00:29.654, 1595692829654
197, 40245.79, 187500.00, 187500.00, 187500.00, 187500.00, 187500.00, 187500.00, 0.00, 0, 12:00:29.662, 1595692829662
198, 41485.86, 187500.00, 187500.00, 187500.00, 187500.00, 187500.00, 187500.00, 0.00, 0, 12:00:29.662, 1595692829662
199, 39403.11, 187500.00, 187500.00, 187500.00, 187500.00, 187500.00, 187500.00, 0.00, 0, 12:00:29.670, 1595692829670
200, 38853.93, 187500.00, 187500.00, 187500.00, 187500.00, 187500.00, 187500.00, 0.00, 0, 12:00:29.670, 1595692829670
201, 40021.89, 187500.00, 187500.00, 187500.00, 187500.00, 187500.00, 187500.00, 0.00, 0, 12:00:29.676, 1595692829676
202, 41449.45, 187500.00, 187500.00, 187500.00, 187500.00, 187500.00, 187500.00, 0.00, 0, 12:00:29.683, 1595692829683
203, 39869.18, 187500.00, 187500.00, 187500.00, 187500.00, 187500.00, 187500.00, 0.00, 0, 12:00:29.684, 1595692829684
204, 38702.94, 187500.00, 187500.00, 187500.00, 187500.00, 187500.00, 187500.00, 0.00, 0, 12:00:29.692, 1595692829692
205, 39844.20, 187500.00, 187500.00, 187500.00, 187500.00, 187500.00, 187500.00, 0.00, 0, 12:00:29.692, 1595692829692
206, 41324.21, 187500.00, 187500.00, 187500.00, 187500.00, 187500.00, 187500.00, 0.00, 0, 12:00:29.701, 1595692829701
207, 40399.46, 187500.00, 187500.00, 187500.00, 187500.00, 187500.00, 187500.00, 0.00, 0, 12:00:29.701, 1595692829701
208, 38653.65, 187500.00, 187500.00, 187500.00, 187500.00, 187500.00, 187500.00, 0.00, 0, 12:00:29.707, 1595692829707
209, 39683.02, 187500.00, 187500.00, 187500.00, 187500.00, 187500.00, 187500.00, 0.00, 0, 12:00:29.707, 1595692829707
210, 41105.50, 187500.00, 187500.00, 187500.00, 187500.00, 187500.00, 187500.00, 0.00, 0, 12:00:29.714, 1595692829714
211, 40871.30, 187500.00, 187500.00, 187500.00, 187500.00, 187500.00, 187500.00, 0.00, 0, 12:00:29.714, 1595692829714
212, 38688.50, 187500.00, 187500.00, 187500.00, 187500.00, 187500.00, 187500.00, 0.00, 0, 12:00:29.722, 1595692829722
213, 39495.11, 187500.00, 187500.00, 187500.00, 187500.00, 187500.00, 187500.00, 0.00, 0, 12:00:29.722, 1595692829722
214, 40823.92, 187500.00, 187500.00, 187500.00, 187500.00, 187500.00, 187500.00, 0.00, 0, 12:00:29.731, 1595692829731
215, 41251.62, 187500.00, 187500.00, 187500.00, 187500.00, 187500.00, 187500.00, 0.00, 0, 12:00:29.732, 1595692829732
216, 38849.63, 187500.00, 187500.00, 187500.00, 187500.00, 187500.00, 187500.00, 0.00, 0, 12:00:29.737, 1595692829737
217, 39286.23, 187500.00, 187500.00, 187500.00, 187500.00, 187500.00, 187500.00, 0.00, 0, 12:00:29.745, 1595692829745
218, 40541.57, 187500.00, 187500.00, 187500.00, 187500.00, 187500.00, 187500.00, 0.00, 0, 12:00:29.745, 1595692829745
219, 41478.53, 187500.00, 187500.00, 187500.00, 187500.00, 187500.00, 187500.00, 0.00, 0, 12:00:29.752, 1595692829752
220, 39137.70, 187500.00, 187500.00, 187500.00, 187500.00, 187500.00, 187500.00, 0.00, 0, 12:00:29.752, 1595692829752
221, 39067.23, 187500.00, 187500.00, 187500.00, 187500.00, 187500.00, 187500.00, 0.00, 0, 12:00:29.758, 1595692829758
222, 40278.80, 187500.00, 187500.00, 187500.00, 187500.00, 187500.00, 187500.00, 0.00, 0, 12:00:29.759, 1595692829759
223, 41558.91, 187500.00, 187500.00, 187500.00, 187500.00, 187500.00, 187500.00, 0.00, 0, 12:00:29.768, 1595692829768
224, 39542.56, 187500.00, 187500.00, 187500.00, 187500.00, 187500.00, 187500.00, 0.00, 0, 12:00:29.768, 1595692829768
225, 38878.51, 187500.00, 187500.00, 187500.00, 187500.00, 187500.00, 187500.00, 0.00, 0, 12:00:29.775, 1595692829775
226, 40056.67, 187500.00, 187500.00, 187500.00, 187500.00, 187500.00, 187500.00, 0.00, 0, 12:00:29.775, 1595692829775
227, 41507.59, 187500.00, 187500.00, 187500.00, 187500.00, 187500.00, 187500.00, 0.00, 0, 12:00:29.781, 1595692829781
228, 40029.31, 187500.00, 187500.00, 187500.00, 187500.00, 187500.00, 187500.00, 0.00, 0, 12:00:29.782, 1595692829782
229, 38739.57, 187500.00, 187500.00, 187500.00, 187500.00, 187500.00, 187500.00, 0.00, 0, 12:00:29.789, 1595692829789
230, 39858.28, 187500.00, 187500.00, 187500.00, 187500.00, 187500.00, 187500.00, 0.00, 0, 12:00:29.789, 1595692829789
231, 41330.57, 187500.00, 187500.00, 187500.00, 187500.00, 187500.00, 187500.00, 0.00, 0, 12:00:29.796, 1595692829796
232, 40517.45, 187500.00, 187500.00, 187500.00, 187500.00, 187500.00, 187500.00, 0.00, 0, 12:00:29.796, 1595692829796
233, 38669.77, 187500.00, 187500.00, 187500.00, 187500.00, 187500.00, 187500.00, 0.00, 0, 12:00:29.804, 1595692829804
234, 39664.98, 187500.00, 187500.00, 187500.00, 187500.00, 187500.00, 187500.00, 0.00, 0, 12:00:29.811, 1595692829811
235, 41069.88, 187500.00, 187500.00, 187500.00, 187500.00, 187500.00, 187500.00, 0.00, 0, 12:00:29.812, 1595692829812
236, 40964.87, 187500.00, 187500.00, 187500.00, 187500.00, 187500.00, 187500.00, 0.00, 0, 12:00:29.819, 1595692829819
237, 38719.48, 187500.00, 187500.00, 187500.00, 187500.00, 187500.00, 187500.00, 0.00, 0, 12:00:29.819, 1595692829819
238, 39463.52, 187500.00, 187500.00, 187500.00, 187500.00, 187500.00, 187500.00, 0.00, 0, 12:00:29.827, 1595692829827
239, 40772.17, 187500.00, 187500.00, 187500.00, 187500.00, 187500.00, 187500.00, 0.00, 0, 12:00:29.828, 1595692829828
240, 41305.46, 187500.00, 187500.00, 187500.00, 187500.00, 187500.00, 187500.00, 0.00, 0, 12:00:29.835, 1595692829835
241, 38897.46, 187500.00, 187500.00, 187500.00, 187500.00, 187500.00, 187500.00, 0.00, 0, 12:00:29.835, 1595692829835
242, 39258.13, 187500.00, 187500.00, 187500.00, 187500.00, 187500.00, 187500.00, 0.00, 0, 12:00:29.841, 1595692829841
243, 40501.05, 187500.00, 187500.00, 187500.00, 187500.00, 187500.00, 187500.00, 0.00, 0, 12:00:29.841, 1595692829841
244, 41516.57, 187500.00, 187500.00, 187500.00, 187500.00, 187500.00, 187500.00, 0.00, 0, 12:00:29.849, 1595692829849
245, 39223.58, 187500.00, 187500.00, 187500.00, 187500.00, 187500.00, 187500.00, 0.00, 0, 12:00:29.850, 1595692829850
246, 39054.60, 187500.00, 187500.00, 187500.00, 187500.00, 187500.00, 187500.00, 0.00, 0, 12:00:29.857, 1595692829857
247, 40252.54, 187500.00, 187500.00, 187500.00, 187500.00, 187500.00, 187500.00, 0.00, 0, 12:00:29.857, 1595692829857
248, 41565.82, 187500.00, 187500.00, 187500.00, 187500.00, 187500.00, 187500.00, 0.00, 0, 12:00:29.866, 1595692829866
249, 39630.51, 187500.00, 187500.00, 187500.00, 187500.00, 187500.00, 187500.00, 0.00, 0, 12:00:29.871, 1595692829871
250, 38842.77, 187500.00, 187500.00, 187500.00, 187500.00, 187500.00, 187500.00, 0.00, 0, 12:00:29.871, 1595692829871
251, 40019.68, 187500.00, 187500.00, 187500.00, 187500.00, 187500.00, 187500.00, 0.00, 0, 12:00:29.879, 1595692829879
252, 41483.25, 187500.00, 187500.00, 187500.00, 187500.00, 187500.00, 187500.00, 0.00, 0, 12:00:29.879, 1595692829879
253, 40116.98, 187500.00, 187500.00, 187500.00, 187500.00, 187500.00, 187500.00, 0.00, 0, 12:00:29.887, 1595692829887
254, 38715.52, 187500.00, 187500.00, 187500.00, 187500.00, 187500.00, 187500.00, 0.00, 0, 12:00:29.887, 1595692829887
255, 39819.54, 187500.00, 187500.00, 187500.00, 187500.00, 187500.00, 187500.00, 0.00, 0, 12:00:29.894, 1595692829894
0, 41285.66, 187500.00, 187500.00, 187500.00, 187500.00, 187500.00, 187500.00, 0.00, 0, 12:00:29.894, 1595692829894
1, 40609.41, 187500.00, 187500.00, 187500.00, 187500.00, 187500.00, 187500.00, 0.00, 0, 12:00:29.902, 1595692829902
2, 38671.87, 187500.00, 187500.00, 187500.00, 187500.00, 187500.00, 187500.00, 0.00, 0, 12:00:29.902, 1595692829902
3, 39629.08, 187500.00, 187500.00, 187500.00, 187500.00, 187500.00, 187500.00, 0.00, 0, 12:00:29.910, 1595692829910
4, 41013.21, 187500.00, 187500.00, 187500.00, 187500.00, 187500.00, 187500.00, 0.00, 0, 12:00:29.910, 1595692829910
5, 41031.05, 187500.00, 187500.00, 187500.00, 187500.00, 187500.00, 187500.00, 0.00, 0, 12:00:29.917, 1595692829917
6, 38733.76, 187500.00, 187500.00, 187500.00, 187500.00, 187500.00, 187500.00, 0.00, 0, 12:00:29.917, 1595692829917
7, 39423.52, 187500.00, 187500.00, 187500.00, 187500.00, 187500.00, 187500.00, 0.00, 0, 12:00:29.923, 1595692829923
8, 40723.00, 187500.00, 187500.00, 187500.00, 187500.00, 187500.00, 187500.00, 0.00, 0, 12:00:29.932, 1595692829932
9, 41360.40, 187500.00, 187500.00, 187500.00, 187500.00, 187500.00, 187500.00, 0.00, 0, 12:00:29.932, 1595692829932
10, 38946.62, 187500.00, 187500.00, 187500.00, 187500.00, 187500.00, 187500.00, 0.00, 0, 12:00:29.940, 1595692829940
11, 39215.15, 187500.00, 187500.00, 187500.00, 187500.00, 187500.00, 187500.00, 0.00, 0, 12:00:29.940, 1595692829940
12, 40441.73, 187500.00, 187500.00, 187500.00, 187500.00, 187500.00, 187500.00, 0.00, 0, 12:00:29.946, 1595692829946
13, 41530.23, 187500.00, 187500.00, 187500.00, 187500.00, 187500.00, 187500.00, 0.00, 0, 12:00:29.947, 1595692829947
14, 39283.32, 187500.00, 187500.00, 187500.00, 187500.00, 187500.00, 187500.00, 0.00, 0, 12:00:29.954, 1595692829954
15, 39002.54, 187500.00, 187500.00, 187500.00, 187500.00, 187500.00, 187500.00, 0.00, 0, 12:00:29.954, 1595692829954
16, 40202.61, 187500.00, 187500.00, 187500.00, 187500.00, 187500.00, 187500.00, 0.00, 0, 12:00:29.963, 1595692829963
17, 41560.56, 187500.00, 187500.00, 187500.00, 187500.00, 187500.00, 187500.00, 0.00, 0, 12:00:29.963, 1595692829963
18, 39723.05, 187500.00, 187500.00, 187500.00, 187500.00, 187500.00, 187500.00, 0.00, 0, 12:00:29.970, 1595692829970
19, 38828.04, 187500.00, 187500.00, 187500.00, 187500.00, 187500.00, 187500.00, 0.00, 0, 12:00:29.970, 1595692829970
20, 39985.91, 187500.00, 187500.00, 187500.00, 187500.00, 187500.00, 187500.00, 0.00, 0, 12:00:29.977, 1595692829977
21, 41458.91, 187500.00, 187500.00, 187500.00, 187500.00, 187500.00, 187500.00, 0.00, 0, 12:00:29.977, 1595692829977
22, 40212.98, 187500.00, 187500.00, 187500.00, 187500.00, 187500.00, 187500.00, 0.00, 0, 12:00:29.984, 1595692829984
23, 38702.02, 187500.00, 187500.00, 187500.00, 187500.00, 187500.00, 187500.00, 0.00, 0, 12:00:29.992, 1595692829992
24, 39793.23, 187500.00, 187500.00, 187500.00, 187500.00, 187500.00, 187500.00, 0.00, 0, 12:00:29.992, 1595692829992
25, 41244.46, 187500.00, 187500.00, 187500.00, 187500.00, 187500.00, 187500.00, 0.00, 0, 12:00:30.000, 1595692830000
26, 40695.46, 187500.00, 187500.00, 187500.00, 187500.00, 187500.00, 187500.00, 0.00, 0, 12:00:30.001, 1595692830001
27, 38677.97, 187500.00, 187500.00, 187500.00, 187500.00, 187500.00, 187500.00, 0.00, 0, 12:00:30.008, 1595692830008
28, 39604.21, 187500.00, 187500.00, 187500.00, 187500.00, 187500.00, 187500.00, 0.00, 0, 12:00:30.008, 1595692830008
29, 40972.45, 187500.00, 187500.00, 187500.00, 187500.00, 187500.00, 187500.00, 0.00, 0, 12:00:30.014, 1595692830014
30, 41115.88, 187500.00, 187500.00, 187500.00, 187500.00, 187500.00, 187500.00, 0.00, 0, 12:00:30.014, 1595692830014
31, 38779.94, 187500.00, 187500.00, 187500.00, 187500.00, 187500.00, 187500.00, 0.00, 0, 12:00:30.022, 1595692830022
32, 39406.10, 187500.00, 187500.00, 187500.00, 187500.00, 187500.00, 187500.00, 0.00, 0, 12:00:30.022, 1595692830022
33, 40688.58, 187500.00, 187500.00, 187500.00, 187500.00, 187500.00, 187500.00, 0.00, 0, 12:00:30.030, 1595692830030
34, 41414.92, 187500.00, 187500.00, 187500.00, 187500.00, 187500.00, 187500.00, 0.00, 0, 12:00:30.030, 1595692830030
35, 39010.03, 187500.00, 187500.00, 187500.00, 187500.00, 187500.00, 187500.00, 0.00, 0, 12:00:30.037, 1595692830037
36, 39182.67, 187500.00, 187500.00, 187500.00, 187500.00, 187500.00, 187500.00, 0.00, 0, 12:00:30.037, 1595692830037
37, 40404.75, 187500.00, 187500.00, 187500.00, 187500.00, 187500.00, 187500.00, 0.00, 0, 12:00:30.044, 1595692830044
38, 41560.34, 187500.00, 187500.00, 187500.00, 187500.00, 187500.00, 187500.00, 0.00, 0, 12:00:30.044, 1595692830044
39, 39373.16, 187500.00, 187500.00, 187500.00, 187500.00, 187500.00, 187500.00, 0.00, 0, 12:00:30.052, 1595692830052
40, 38985.24, 187500.00, 187500.00, 187500.00, 187500.00, 187500.00, 187500.00, 0.00, 0, 12:00:30.058, 1595692830058
41, 40174.82, 187500.00, 187500.00, 187500.00, 187500.00, 187500.00, 187500.00, 0.00, 0, 12:00:30.059, 1595692830059
42, 41569.30, 187500.00, 187500.00, 187500.00, 187500.00, 187500.00, 187500.00, 0.00, 0, 12:00:30.066, 1595692830066
43, 39819.39, 187500.00, 187500.00, 187500.00, 187500.00, 187500.00, 187500.00, 0.00, 0, 12:00:30.067, 1595692830067
44, 38799.77, 187500.00, 187500.00, 187500.00, 187500.00, 187500.00, 187500.00, 0.00, 0, 12:00:30.075, 1595692830075
45, 39948.96, 187500.00, 187500.00, 187500.00, 187500.00, 187500.00, 187500.00, 0.00, 0, 12:00:30.075, 1595692830075
46, 41424.64, 187500.00, 187500.00, 187500.00, 187500.00, 187500.00, 187500.00, 0.00, 0, 12:00:30.082, 1595692830082
47, 40301.96, 187500.00, 187500.00, 187500.00, 187500.00, 187500.00, 187500.00, 0.00, 0, 12:00:30.082, 1595692830082
48, 38683.45, 187500.00, 187500.00, 187500.00, 187500.00, 187500.00, 187500.00, 0.00, 0, 12:00:30.089, 1595692830089
49, 39750.90, 187500.00, 187500.00, 187500.00, 187500.00, 187500.00, 187500.00, 0.00, 0, 12:00:30.089, 1595692830089
50, 41192.05, 187500.00, 187500.00, 187500.00, 187500.00, 187500.00, 187500.00, 0.00, 0, 12:00:30.097, 1595692830097
51, 40771.50, 187500.00, 187500.00, 187500.00, 187500.00, 187500.00, 187500.00, 0.00, 0, 12:00:30.097, 1595692830097
52, 38679.87, 187500.00, 187500.00, 187500.00, 187500.00, 187500.00, 187500.00, 0.00, 0, 12:00:30.105, 1595692830105
53, 39559.86, 187500.00, 187500.00, 187500.00, 187500.00, 187500.00, 187500.00, 0.00, 0, 12:00:30.106, 1595692830106
54, 40915.31, 187500.00, 187500.00, 187500.00, 187500.00, 187500.00, 187500.00, 0.00, 0, 12:00:30.111, 1595692830111
55, 41174.55, 187500.00, 187500.00, 187500.00, 187500.00, 187500.00, 187500.00, 0.00, 0, 12:00:30.119, 1595692830119
56, 38804.62, 187500.00, 187500.00, 187500.00, 187500.00, 187500.00, 187500.00, 0.00, 0, 12:00:30.119, 1595692830119
57, 39355.36, 187500.00, 187500.00, 187500.00, 187500.00, 187500.00, 187500.00, 0.00, 0, 12:00:30.127, 1595692830127
58, 40625.03, 187500.00, 187500.00, 187500.00, 187500.00, 187500.00, 187500.00, 0.00, 0, 12:00:30.127, 1595692830127
59, 41450.50, 187500.00, 187500.00, 187500.00, 187500.00, 187500.00, 187500.00, 0.00, 0, 12:00:30.135, 1595692830135
60, 39058.84, 187500.00, 187500.00, 187500.00, 187500.00, 187500.00, 187500.00, 0.00, 0, 12:00:30.135, 1595692830135
61, 39135.31, 187500.00, 187500.00, 187500.00, 187500.00, 187500.00, 187500.00, 0.00, 0, 12:00:30.141, 1595692830141
62, 40358.26, 187500.00, 187500.00, 187500.00, 187500.00, 187500.00, 187500.00, 0.00, 0, 12:00:30.142, 1595692830142
63, 41569.01, 187500.00, 187500.00, 187500.00, 187500.00, 187500.00, 187500.00, 0.00, 0, 12:00:30.150, 1595692830150
64, 39440.97, 187500.00, 187500.00, 187500.00, 187500.00, 187500.00, 187500.00, 0.00, 0, 12:00:30.150, 1595692830150
65, 38933.14, 187500.00, 187500.00, 187500.00, 187500.00, 187500.00, 187500.00, 0.00, 0, 12:00:30.158, 1595692830158
66, 40116.60, 187500.00, 187500.00, 187500.00, 187500.00, 187500.00, 187500.00, 0.00, 0, 12:00:30.158, 1595692830158
67, 41538.23, 187500.00, 187500.00, 187500.00, 187500.00, 187500.00, 187500.00, 0.00, 0, 12:00:30.164, 1595692830164
68, 39891.22, 187500.00, 187500.00, 187500.00, 187500.00, 187500.00, 187500.00, 0.00, 0, 12:00:30.165, 1595692830165
69, 38764.25, 187500.00, 187500.00, 187500.00, 187500.00, 187500.00, 187500.00, 0.00, 0, 12:00:30.171, 1595692830171
70, 39911.50, 187500.00, 187500.00, 187500.00, 187500.00, 187500.00, 187500.00, 0.00, 0, 12:00:30.180, 1595692830180
71, 41388.07, 187500.00, 187500.00, 187500.00, 187500.00, 187500.00, 187500.00, 0.00, 0, 12:00:30.181, 1595692830181
72, 40386.43, 187500.00, 187500.00, 187500.00, 187500.00, 187500.00, 187500.00, 0.00, 0, 12:00:30.187, 1595692830187
73, 38674.82, 187500.00, 187500.00, 187500.00, 187500.00, 187500.00, 187500.00, 0.00, 0, 12:00:30.187, 1595692830187
74, 39714.40, 187500.00, 187500.00, 187500.00, 187500.00, 187500.00, 187500.00, 0.00, 0, 12:00:30.194, 1595692830194
75, 41140.93, 187500.00, 187500.00, 187500.00, 187500.00, 187500.00, 187500.00, 0.00, 0, 12:00:30.194, 1595692830194
76, 40847.99, 187500.00, 187500.00, 187500.00, 187500.00, 187500.00, 187500.00, 0.00, 0, 12:00:30.202, 1595692830202
77, 38690.96, 187500.00, 187500.00, 187500.00, 187500.00, 187500.00, 187500.00, 0.00, 0, 12:00:30.202, 1595692830202
78, 39524.32, 187500.00, 187500.00, 187500.00, 187500.00, 187500.00, 187500.00, 0.00, 0, 12:00:30.210, 1595692830210
79, 40866.03, 187500.00, 187500.00, 187500.00, 187500.00, 187500.00, 187500.00, 0.00, 0, 12:00:30.211, 1595692830211
80, 41235.57, 187500.00, 187500.00, 187500.00, 187500.00, 187500.00, 187500.00, 0.00, 0, 12:00:30.217, 1595692830217
81, 38837.09, 187500.00, 187500.00, 187500.00, 187500.00, 187500.00, 187500.00, 0.00, 0, 12:00:30.217, 1595692830217
82, 39309.92, 187500.00, 187500.00, 187500.00, 187500.00, 187500.00, 187500.00, 0.00, 0, 12:00:30.224, 1595692830224
83, 40570.94, 187500.00, 187500.00, 187500.00, 187500.00, 187500.00, 187500.00, 0.00, 0, 12:00:30.224, 1595692830224
84, 41477.91, 187500.00, 187500.00, 187500.00, 187500.00, 187500.00, 187500.00, 0.00, 0, 12:00:30.231, 1595692830231
85, 39119.91, 187500.00, 187500.00, 187500.00, 187500.00, 187500.00, 187500.00, 0.00, 0, 12:00:30.240, 1595692830240
86, 39099.95, 187500.00, 187500.00, 187500.00, 187500.00, 187500.00, 187500.00, 0.00, 0, 12:00:30.240, 1595692830240
87, 40316.53, 187500.00, 187500.00, 187500.00, 187500.00, 187500.00, 187500.00, 0.00, 0, 12:00:30.246, 1595692830246
88, 41572.14, 187500.00, 187500.00, 187500.00, 187500.00, 187500.00, 187500.00, 0.00, 0, 12:00:30.247, 1595692830247
89, 39516.63, 187500.00, 187500.00, 187500.00, 187500.00, 187500.00, 187500.00, 0.00, 0, 12:00:30.254, 1595692830254
90, 38902.70, 187500.00, 187500.00, 187500.00, 187500.00, 187500.00, 187500.00, 0.00, 0, 12:00:30.254, 1595692830254
91, 40083.45, 187500.00, 187500.00, 187500.00, 187500.00, 187500.00, 187500.00, 0.00, 0, 12:00:30.262, 1595692830262
92, 41519.77, 187500.00, 187500.00, 187500.00, 187500.00, 187500.00, 187500.00, 0.00, 0, 12:00:30.262, 1595692830262
93, 39981.75, 187500.00, 187500.00, 187500.00, 187500.00, 187500.00, 187500.00, 0.00, 0, 12:00:30.270, 1595692830270
94, 38745.41, 187500.00, 187500.00, 187500.00, 187500.00, 187500.00, 187500.00, 0.00, 0, 12:00:30.270, 1595692830270
95, 39876.25, 187500.00, 187500.00, 187500.00, 187500.00, 187500.00, 187500.00, 0.00, 0, 12:00:30.278, 1595692830278
96, 41348.71, 187500.00, 187500.00, 187500.00, 187500.00, 187500.00, 187500.00, 0.00, 0, 12:00:30.278, 1595692830278
97, 40471.97, 187500.00, 187500.00, 187500.00, 187500.00, 187500.00, 187500.00, 0.00, 0, 12:00:30.285, 1595692830285
98, 38670.71, 187500.00, 187500.00, 187500.00, 187500.00, 187500.00, 187500.00, 0.00, 0, 12:00:30.285, 1595692830285
99, 39684.07, 187500.00, 187500.00, 187500.00, 187500.00, 187500.00, 187500.00, 0.00, 0, 12:00:30.291, 1595692830291
100, 41101.64, 187500.00, 187500.00, 187500.00, 187500.00, 187500.00, 187500.00, 0.00, 0, 12:00:30.291, 1595692830291
101, 40932.21, 187500.00, 187500.00, 187500.00, 187500.00, 187500.00, 187500.00, 0.00, 0, 12:00:30.299, 1595692830299
102, 38705.48, 187500.00, 187500.00, 187500.00, 187500.00, 187500.00, 187500.00, 0.00, 0, 12:00:30.308, 1595692830308
103, 39487.44, 187500.00, 187500.00, 187500.00, 187500.00, 187500.00, 187500.00, 0.00, 0, 12:00:30.309, 1595692830309
104, 40807.71, 187500.00, 187500.00, 187500.00, 187500.00, 187500.00, 187500.00, 0.00, 0, 12:00:30.314, 1595692830314
105, 41282.44, 187500.00, 187500.00, 187500.00, 187500.00, 187500.00, 187500.00, 0.00, 0, 12:00:30.314, 1595692830314
106, 38876.43, 187500.00, 187500.00, 187500.00, 187500.00, 187500.00, 187500.00, 0.00, 0, 12:00:30.322, 1595692830322
107, 39267.88, 187500.00, 187500.00, 187500.00, 187500.00, 187500.00, 187500.00, 0.00, 0, 12:00:30.322, 1595692830322
108, 40517.09, 187500.00, 187500.00, 187500.00, 187500.00, 187500.00, 187500.00, 0.00, 0, 12:00:30.330, 1595692830330
109, 41499.10, 187500.00, 187500.00, 187500.00, 187500.00, 187500.00, 187500.00, 0.00, 0, 12:00:30.330, 1595692830330
110, 39181.91, 187500.00, 187500.00, 187500.00, 187500.00, 187500.00, 187500.00, 0.00, 0, 12:00:30.338, 1595692830338
111, 39064.01, 187500.00, 187500.00, 187500.00, 187500.00, 187500.00, 187500.00, 0.00, 0, 12:00:30.338, 1595692830338
112, 40265.91, 187500.00, 187500.00, 187500.00, 187500.00, 187500.00, 187500.00, 0.00, 0, 12:00:30.345, 1595692830345
113, 41571.09, 187500.00, 187500.00, 187500.00, 187500.00, 187500.00, 187500.00, 0.00, 0, 12:00:30.346, 1595692830346
114, 39597.81, 187500.00, 187500.00, 187500.00, 187500.00, 187500.00, 187500.00, 0.00, 0, 12:00:30.352, 1595692830352
115, 38874.11, 187500.00, 187500.00, 187500.00, 187500.00, 187500.00, 187500.00, 0.00, 0, 12:00:30.352, 1595692830352
116, 40044.82, 187500.00, 187500.00, 187500.00, 187500.00, 187500.00, 187500.00, 0.00, 0, 12:00:30.359, 1595692830359
117, 41500.66, 187500.00, 187500.00, 187500.00, 187500.00, 187500.00, 187500.00, 0.00, 0, 12:00:30.367, 1595692830367
118, 40074.22, 187500.00, 187500.00, 187500.00, 187500.00, 187500.00, 187500.00, 0.00, 0, 12:00:30.367, 1595692830367
119, 38730.68, 187500.00, 187500.00, 187500.00, 187500.00, 187500.00, 187500.00, 0.00, 0, 12:00:30.374, 1595692830374
120, 39845.09, 187500.00, 187500.00, 187500.00, 187500.00, 187500.00, 187500.00, 0.00, 0, 12:00:30.375, 1595692830375
121, 41313.13, 187500.00, 187500.00, 187500.00, 187500.00, 187500.00, 187500.00, 0.00, 0, 12:00:30.382, 1595692830382
122, 40568.71, 187500.00, 187500.00, 187500.00, 187500.00, 187500.00, 187500.00, 0.00, 0, 12:00:30.382, 1595692830382
123, 38675.09, 187500.00, 187500.00, 187500.00, 187500.00, 187500.00, 187500.00, 0.00, 0, 12:00:30.390, 1595692830390
124, 39652.64, 187500.00, 187500.00, 187500.00, 187500.00, 187500.00, 187500.00, 0.00, 0, 12:00:30.390, 1595692830390
125, 41049.74, 187500.00, 187500.00, 187500.00, 187500.00, 187500.00, 187500.00, 0.00, 0, 12:00:30.397, 1595692830397
126, 41012.70, 187500.00, 187500.00, 187500.00, 187500.00, 187500.00, 187500.00, 0.00, 0, 12:00:30.397, 1595692830397
127, 38742.93, 187500.00, 187500.00, 187500.00, 187500.00, 187500.00, 187500.00, 0.00, 0, 12:00:30.404, 1595692830404
128, 39457.76, 187500.00, 187500.00, 187500.00, 187500.00, 187500.00, 187500.00, 0.00, 0, 12:00:30.404, 1595692830404
129, 40764.80, 187500.00, 187500.00, 187500.00, 187500.00, 187500.00, 187500.00, 0.00, 0, 12:00:30.413, 1595692830413
130, 41344.76, 187500.00, 187500.00, 187500.00, 187500.00, 187500.00, 187500.00, 0.00, 0, 12:00:30.413, 1595692830413
131, 38929.56, 187500.00, 187500.00, 187500.00, 187500.00, 187500.00, 187500.00, 0.00, 0, 12:00:30.420, 1595692830420
132, 39244.81, 187500.00, 187500.00, 187500.00, 187500.00, 187500.00, 187500.00, 0.00, 0, 12:00:30.426, 1595692830426
133, 40476.86, 187500.00, 187500.00, 187500.00, 187500.00, 187500.00, 187500.00, 0.00, 0, 12:00:30.426, 1595692830426
134, 41531.77, 187500.00, 187500.00, 187500.00, 187500.00, 187500.00, 187500.00, 0.00, 0, 12:00:30.434, 1595692830434
135, 39260.48, 187500.00, 187500.00, 187500.00, 187500.00, 187500.00, 187500.00, 0.00, 0, 12:00:30.434, 1595692830434
136, 39032.20, 187500.00, 187500.00, 187500.00, 187500.00, 187500.00, 187500.00, 0.00, 0, 12:00:30.443, 1595692830443
137, 40231.98, 187500.00, 187500.00, 187500.00, 187500.00, 187500.00, 187500.00, 0.00, 0, 12:00:30.443, 1595692830443
138, 41573.19, 187500.00, 187500.00, 187500.00, 187500.00, 187500.00, 187500.00, 0.00, 0, 12:00:30.450, 1595692830450
139, 39683.20, 187500.00, 187500.00, 187500.00, 187500.00, 187500.00, 187500.00, 0.00, 0, 12:00:30.450, 1595692830450
140, 38843.66, 187500.00, 187500.00, 187500.00, 187500.00, 187500.00, 187500.00, 0.00, 0, 12:00:30.457, 1595692830457
141, 40008.39, 187500.00, 187500.00, 187500.00, 187500.00, 187500.00, 187500.00, 0.00, 0, 12:00:30.457, 1595692830457
142, 41476.57, 187500.00, 187500.00, 187500.00, 187500.00, 187500.00, 187500.00, 0.00, 0, 12:00:30.465, 1595692830465
143, 40168.96, 187500.00, 187500.00, 187500.00, 187500.00, 187500.00, 187500.00, 0.00, 0, 12:00:30.465, 1595692830465
144, 38716.21, 187500.00, 187500.00, 187500.00, 187500.00, 187500.00, 187500.00, 0.00, 0, 12:00:30.473, 1595692830473
145, 39811.56, 187500.00, 187500.00, 187500.00, 187500.00, 187500.00, 187500.00, 0.00, 0, 12:00:30.473, 1595692830473
146, 41263.38, 187500.00, 187500.00, 187500.00, 187500.00, 187500.00, 187500.00, 0.00, 0, 12:00:30.480, 1595692830480
147, 40649.69, 187500.00, 187500.00, 187500.00, 187500.00, 187500.00, 187500.00, 0.00, 0, 12:00:30.486, 1595692830486
148, 38675.00, 187500.00, 187500.00, 187500.00, 187500.00, 187500.00, 187500.00, 0.00, 0, 12:00:30.487, 1595692830487
149, 39615.71, 187500.00, 187500.00, 187500.00, 187500.00, 187500.00, 187500.00, 0.00, 0, 12:00:30.494, 1595692830494
150, 40991.11, 187500.00, 187500.00, 187500.00, 187500.00, 187500.00, 187500.00, 0.00, 0, 12:00:30.495, 1595692830495
151, 41071.30, 187500.00, 187500.00, 187500.00, 187500.00, 187500.00, 187500.00, 0.00, 0, 12:00:30.502, 1595692830502
152, 38754.06, 187500.00, 187500.00, 187500.00, 187500.00, 187500.00, 187500.00, 0.00, 0, 12:00:30.503, 1595692830503
153, 39409.52, 187500.00, 187500.00, 187500.00, 187500.00, 187500.00, 187500.00, 0.00, 0, 12:00:30.509, 1595692830509
154, 40695.95, 187500.00, 187500.00, 187500.00, 187500.00, 187500.00, 187500.00, 0.00, 0, 12:00:30.509, 1595692830509
155, 41377.79, 187500.00, 187500.00, 187500.00, 187500.00, 187500.00, 187500.00, 0.00, 0, 12:00:30.517, 1595692830517
156, 38974.64, 187500.00, 187500.00, 187500.00, 187500.00, 187500.00, 187500.00, 0.00, 0, 12:00:30.517, 1595692830517
157, 39195.39, 187500.00, 187500.00, 187500.00, 187500.00, 187500.00, 187500.00, 0.00, 0, 12:00:30.526, 1595692830526
158, 40423.53, 187500.00, 187500.00, 187500.00, 187500.00, 187500.00, 187500.00, 0.00, 0, 12:00:30.526, 1595692830526
159, 41542.53, 187500.00, 187500.00, 187500.00, 187500.00, 187500.00, 187500.00, 0.00, 0, 12:00:30.532, 1595692830532
160, 39319.58, 187500.00, 187500.00, 187500.00, 187500.00, 187500.00, 187500.00, 0.00, 0, 12:00:30.532, 1595692830532
161, 38983.92, 187500.00, 187500.00, 187500.00, 187500.00, 187500.00, 187500.00, 0.00, 0, 12:00:30.539, 1595692830539
162, 40171.98, 187500.00, 187500.00, 187500.00, 187500.00, 187500.00, 187500.00, 0.00, 0, 12:00:30.539, 1595692830539
163, 41550.95, 187500.00, 187500.00, 187500.00, 187500.00, 187500.00, 187500.00, 0.00, 0, 12:00:30.547, 1595692830547
164, 39757.76, 187500.00, 187500.00, 187500.00, 187500.00, 187500.00, 187500.00, 0.00, 0, 12:00:30.555, 1595692830555
165, 38801.15, 187500.00, 187500.00, 187500.00, 187500.00, 187500.00, 187500.00, 0.00, 0, 12:00:30.555, 1595692830555
166, 39958.01, 187500.00, 187500.00, 187500.00, 187500.00, 187500.00, 187500.00, 0.00, 0, 12:00:30.562, 1595692830562
167, 41433.41, 187500.00, 187500.00, 187500.00, 187500.00, 187500.00, 187500.00, 0.00, 0, 12:00:30.562, 1595692830562
168, 40241.66, 187500.00, 187500.00, 187500.00, 187500.00, 187500.00, 187500.00, 0.00, 0, 12:00:30.569, 1595692830569
169, 38688.99, 187500.00, 187500.00, 187500.00, 187500.00, 187500.00, 187500.00, 0.00, 0, 12:00:30.569, 1595692830569
170, 39768.74, 187500.00, 187500.00, 187500.00, 187500.00, 187500.00, 187500.00, 0.00, 0, 12:00:30.577, 1595692830577
171, 41214.18, 187500.00, 187500.00, 187500.00, 187500.00, 187500.00, 187500.00, 0.00, 0, 12:00:30.578, 1595692830578
172, 40724.45, 187500.00, 187500.00, 187500.00, 187500.00, 187500.00, 187500.00, 0.00, 0, 12:00:30.584, 1595692830584
173, 38669.30, 187500.00, 187500.00, 187500.00, 187500.00, 187500.00, 187500.00, 0.00, 0, 12:00:30.585, 1595692830585
174, 39568.87, 187500.00, 187500.00, 187500.00, 187500.00, 187500.00, 187500.00, 0.00, 0, 12:00:30.592, 1595692830592
175, 40931.36, 187500.00, 187500.00, 187500.00, 187500.00, 187500.00, 187500.00, 0.00, 0, 12:00:30.592, 1595692830592
176, 41129.36, 187500.00, 187500.00, 187500.00, 187500.00, 187500.00, 187500.00, 0.00, 0, 12:00:30.600, 1595692830600
177, 38773.10, 187500.00, 187500.00, 187500.00, 187500.00, 187500.00, 187500.00, 0.00, 0, 12:00:30.600, 1595692830600
178, 39360.88, 187500.00, 187500.00, 187500.00, 187500.00, 187500.00, 187500.00, 0.00, 0, 12:00:30.607, 1595692830607
179, 40641.30, 187500.00, 187500.00, 187500.00, 187500.00, 187500.00, 187500.00, 0.00, 0, 12:00:30.614, 1595692830614
180, 41417.31, 187500.00, 187500.00, 187500.00, 187500.00, 187500.00, 187500.00, 0.00, 0, 12:00:30.614, 1595692830614
181, 39022.64, 187500.00, 187500.00, 187500.00, 187500.00, 187500.00, 187500.00, 0.00, 0, 12:00:30.623, 1595692830623
182, 39152.23, 187500.00, 187500.00, 187500.00, 187500.00, 187500.00, 187500.00, 0.00, 0, 12:00:30.623, 1595692830623
183, 40373.33, 187500.00, 187500.00, 187500.00, 187500.00, 187500.00, 187500.00, 0.00, 0, 12:00:30.630, 1595692830630
184, 41551.11, 187500.00, 187500.00, 187500.00, 187500.00, 187500.00, 187500.00, 0.00, 0, 12:00:30.630, 1595692830630
185, 39392.78, 187500.00, 187500.00, 187500.00, 187500.00, 187500.00, 187500.00, 0.00, 0, 12:00:30.638, 1595692830638
186, 38951.91, 187500.00, 187500.00, 187500.00, 187500.00, 187500.00, 187500.00, 0.00, 0, 12:00:30.638, 1595692830638
187, 40140.09, 187500.00, 187500.00, 187500.00, 187500.00, 187500.00, 187500.00, 0.00, 0, 12:00:30.644, 1595692830644
188, 41542.48, 187500.00, 187500.00, 187500.00, 187500.00, 187500.00, 187500.00, 0.00, 0, 12:00:30.644, 1595692830644
189, 39839.82, 187500.00, 187500.00, 187500.00, 187500.00, 187500.00, 187500.00, 0.00, 0, 12:00:30.652, 1595692830652
190, 38773.73, 187500.00, 187500.00, 187500.00, 187500.00, 187500.00, 187500.00, 0.00, 0, 12:00:30.652, 1595692830652
191, 39917.67, 187500.00, 187500.00, 187500.00, 187500.00, 187500.00, 187500.00, 0.00, 0, 12:00:30.661, 1595692830661
192, 41390.47, 187500.00, 187500.00, 187500.00, 187500.00, 187500.00, 187500.00, 0.00, 0, 12:00:30.661, 1595692830661
193, 40332.78, 187500.00, 187500.00, 187500.00, 187500.00, 187500.00, 187500.00, 0.00, 0, 12:00:30.668, 1595692830668
194, 38671.15, 187500.00, 187500.00, 187500.00, 187500.00, 187500.00, 187500.00, 0.00, 0, 12:00:30.674, 1595692830674
195, 39719.85, 187500.00, 187500.00, 187500.00, 187500.00, 187500.00, 187500.00, 0.00, 0, 12:00:30.674, 1595692830674
196, 41155.13, 187500.00, 187500.00, 187500.00, 187500.00, 187500.00, 187500.00, 0.00, 0, 12:00:30.682, 1595692830682
197, 40794.79, 187500.00, 187500.00, 187500.00, 187500.00, 187500.00, 187500.00, 0.00, 0, 12:00:30.682, 1595692830682
198, 38668.14, 187500.00, 187500.00, 187500.00, 187500.00, 187500.00, 187500.00, 0.00, 0, 12:00:30.690, 1595692830690
199, 39524.66, 187500.00, 187500.00, 187500.00, 187500.00, 187500.00, 187500.00, 0.00, 0, 12:00:30.690, 1595692830690
200, 40871.08, 187500.00, 187500.00, 187500.00, 187500.00, 187500.00, 187500.00, 0.00, 0, 12:00:30.696, 1595692830696
201, 41186.73, 187500.00, 187500.00, 187500.00, 187500.00, 187500.00, 187500.00, 0.00, 0, 12:00:30.697, 1595692830697
202, 38805.36, 187500.00, 187500.00, 187500.00, 187500.00, 187500.00, 187500.00, 0.00, 0, 12:00:30.705, 1595692830705
203, 39321.59, 187500.00, 187500.00, 187500.00, 187500.00, 187500.00, 187500.00, 0.00, 0, 12:00:30.705, 1595692830705
204, 40579.66, 187500.00, 187500.00, 187500.00, 187500.00, 187500.00, 187500.00, 0.00, 0, 12:00:30.713, 1595692830713
205, 41441.52, 187500.00, 187500.00, 187500.00, 187500.00, 187500.00, 187500.00, 0.00, 0, 12:00:30.713, 1595692830713
206, 39072.84, 187500.00, 187500.00, 187500.00, 187500.00, 187500.00, 187500.00, 0.00, 0, 12:00:30.720, 1595692830720
207, 39094.07, 187500.00, 187500.00, 187500.00, 187500.00, 187500.00, 187500.00, 0.00, 0, 12:00:30.720, 1595692830720
208, 40305.63, 187500.00, 187500.00, 187500.00, 187500.00, 187500.00, 187500.00, 0.00, 0, 12:00:30.726, 1595692830726
209, 41543.98, 187500.00, 187500.00, 187500.00, 187500.00, 187500.00, 187500.00, 0.00, 0, 12:00:30.736, 1595692830736
210, 39459.48, 187500.00, 187500.00, 187500.00, 187500.00, 187500.00, 187500.00, 0.00, 0, 12:00:30.736, 1595692830736
211, 38899.07, 187500.00, 187500.00, 187500.00, 187500.00, 187500.00, 187500.00, 0.00, 0, 12:00:30.743, 1595692830743
212, 40080.97, 187500.00, 187500.00, 187500.00, 187500.00, 187500.00, 187500.00, 0.00, 0, 12:00:30.743, 1595692830743
213, 41508.73, 187500.00, 187500.00, 187500.00, 187500.00, 187500.00, 187500.00, 0.00, 0, 12:00:30.749, 1595692830749
214, 39921.93, 187500.00, 187500.00, 187500.00, 187500.00, 187500.00, 187500.00, 0.00, 0, 12:00:30.749, 1595692830749
215, 38743.24, 187500.00, 187500.00, 187500.00, 187500.00, 187500.00, 187500.00, 0.00, 0, 12:00:30.757, 1595692830757
216, 39872.36, 187500.00, 187500.00, 187500.00, 187500.00, 187500.00, 187500.00, 0.00, 0, 12:00:30.757, 1595692830757
217, 41344.89, 187500.00, 187500.00, 187500.00, 187500.00, 187500.00, 187500.00, 0.00, 0, 12:00:30.767, 1595692830767
218, 40413.81, 187500.00, 187500.00, 187500.00, 187500.00, 187500.00, 187500.00, 0.00, 0, 12:00:30.767, 1595692830767
219, 38656.94, 187500.00, 187500.00, 187500.00, 187500.00, 187500.00, 187500.00, 0.00, 0, 12:00:30.773, 1595692830773
220, 39684.76, 187500.00, 187500.00, 187500.00, 187500.00, 187500.00, 187500.00, 0.00, 0, 12:00:30.773, 1595692830773
221, 41103.09, 187500.00, 187500.00, 187500.00, 187500.00, 187500.00, 187500.00, 0.00, 0, 12:00:30.779, 1595692830779
222, 40875.17, 187500.00, 187500.00, 187500.00, 187500.00, 187500.00, 187500.00, 0.00, 0, 12:00:30.779, 1595692830779
223, 38683.20, 187500.00, 187500.00, 187500.00, 187500.00, 187500.00, 187500.00, 0.00, 0, 12:00:30.786, 1595692830786
224, 39486.55, 187500.00, 187500.00, 187500.00, 187500.00, 187500.00, 187500.00, 0.00, 0, 12:00:30.787, 1595692830787
225, 40815.20, 187500.00, 187500.00, 187500.00, 187500.00, 187500.00, 187500.00, 0.00, 0, 12:00:30.795, 1595692830795
226, 41243.04, 187500.00, 187500.00, 187500.00, 187500.00, 187500.00, 187500.00, 0.00, 0, 12:00:30.803, 1595692830803
227, 38840.91, 187500.00, 187500.00, 187500.00, 187500.00, 187500.00, 187500.00, 0.00, 0, 12:00:30.803, 1595692830803
228, 39275.16, 187500.00, 187500.00, 187500.00, 187500.00, 187500.00, 187500.00, 0.00, 0, 12:00:30.809, 1595692830809
229, 40526.64, 187500.00, 187500.00, 187500.00, 187500.00, 187500.00, 187500.00, 0.00, 0, 12:00:30.809, 1595692830809
230, 41468.74, 187500.00, 187500.00, 187500.00, 187500.00, 187500.00, 187500.00, 0.00, 0, 12:00:30.817, 1595692830817
231, 39126.06, 187500.00, 187500.00, 187500.00, 187500.00, 187500.00, 187500.00, 0.00, 0, 12:00:30.817, 1595692830817
232, 39054.49, 187500.00, 187500.00, 187500.00, 187500.00, 187500.00, 187500.00, 0.00, 0, 12:00:30.825, 1595692830825
233, 40260.77, 187500.00, 187500.00, 187500.00, 187500.00, 187500.00, 187500.00, 0.00, 0, 12:00:30.825, 1595692830825
234, 41546.39, 187500.00, 187500.00, 187500.00, 187500.00, 187500.00, 187500.00, 0.00, 0, 12:00:30.834, 1595692830834
235, 39531.74, 187500.00, 187500.00, 187500.00, 187500.00, 187500.00, 187500.00, 0.00, 0, 12:00:30.834, 1595692830834
236, 38856.36, 187500.00, 187500.00, 187500.00, 187500.00, 187500.00, 187500.00, 0.00, 0, 12:00:30.840, 1595692830840
237, 40029.58, 187500.00, 187500.00, 187500.00, 187500.00, 187500.00, 187500.00, 0.00, 0, 12:00:30.840, 1595692830840
238, 41471.36, 187500.00, 187500.00, 187500.00, 187500.00, 187500.00, 187500.00, 0.00, 0, 12:00:30.848, 1595692830848
239, 39995.67, 187500.00, 187500.00, 187500.00, 187500.00, 187500.00, 187500.00, 0.00, 0, 12:00:30.848, 1595692830848
240, 38713.89, 187500.00, 187500.00, 187500.00, 187500.00, 187500.00, 187500.00, 0.00, 0, 12:00:30.855, 1595692830855
241, 39831.79, 187500.00, 187500.00, 187500.00, 187500.00, 187500.00, 187500.00, 0.00, 0, 12:00:30.861, 1595692830861
242, 41304.03, 187500.00, 187500.00, 187500.00, 187500.00, 187500.00, 187500.00, 0.00, 0, 12:00:30.862, 1595692830862
243, 40498.32, 187500.00, 187500.00, 187500.00, 187500.00, 187500.00, 187500.00, 0.00, 0, 12:00:30.870, 1595692830870
244, 38647.91, 187500.00, 187500.00, 187500.00, 187500.00, 187500.00, 187500.00, 0.00, 0, 12:00:30.870, 1595692830870
245, 39640.17, 187500.00, 187500.00, 187500.00, 187500.00, 187500.00, 187500.00, 0.00, 0, 12:00:30.877, 1595692830877
246, 41042.90, 187500.00, 187500.00, 187500.00, 187500.00, 187500.00, 187500.00, 0.00, 0, 12:00:30.877, 1595692830877
247, 40936.64, 187500.00, 187500.00, 187500.00, 187500.00, 187500.00, 187500.00, 0.00, 0, 12:00:30.884, 1595692830884
248, 38690.33, 187500.00, 187500.00, 187500.00, 187500.00, 187500.00, 187500.00, 0.00, 0, 12:00:30.884, 1595692830884
249, 39435.98, 187500.00, 187500.00, 187500.00, 187500.00, 187500.00, 187500.00, 0.00, 0, 12:00:30.892, 1595692830892
250, 40748.30, 187500.00, 187500.00, 187500.00, 187500.00, 187500.00, 187500.00, 0.00, 0, 12:00:30.892, 1595692830892
